Data from LSP59_X8_Subt2_15-53-57-271.txt Node
Date: Wed Aug 09 15:53:57 EDT 2023
User: Emmanuel
Spectrometer: USB4A00615
Scans to average: 1
Trigger mode: 1
Integration Time (sec): 1.300000E-2
Electric dark correction enabled: true
Boxcar width: 0
XAxis mode: Wavelengths
Number of Pixels in Spectrum: 3648
>>>>>Begin Spectral Data<<<<<
346.606	-133.29
346.818	-133.29
347.029	-133.29
347.241	98.13
347.452	182.1
347.664	-63.66
347.876	79.7
348.087	51.03
348.299	-4.27
348.51	77.65
348.722	-8.36
348.933	-67.75
349.145	8.02
349.356	38.74
349.568	-41.13
349.779	26.45
349.991	-96.43
350.202	-110.76
350.414	5.97
350.625	-45.23
350.836	-8.36
351.048	34.64
351.259	5.97
351.471	-0.17
351.682	65.36
351.893	30.55
352.105	69.46
352.316	65.36
352.527	18.26
352.739	-129.19
352.95	18.26
353.161	-43.18
353.372	-41.13
353.584	26.45
353.795	-20.65
354.006	85.84
354.217	-43.18
354.429	-10.41
354.64	-63.66
354.851	-32.94
355.062	-108.71
355.274	51.03
355.485	-110.76
355.696	-96.43
355.907	-92.33
356.118	-61.61
356.329	81.75
356.54	-69.8
356.752	-77.99
356.963	53.08
357.174	67.41
357.385	-34.99
357.596	-20.65
357.807	-37.03
358.018	59.22
358.229	38.74
358.44	-63.66
358.651	46.93
358.862	-4.27
359.073	42.84
359.284	16.21
359.495	44.88
359.706	-51.37
359.917	-20.65
360.128	89.94
360.339	-22.7
360.55	-18.6
360.761	-4.27
360.972	55.12
361.182	-30.89
361.393	20.31
361.604	65.36
361.815	51.03
362.026	8.02
362.237	83.8
362.447	-59.56
362.658	-28.84
362.869	40.79
363.08	10.07
363.291	-49.32
363.501	63.32
363.712	14.17
363.923	69.46
364.134	-10.41
364.344	26.45
364.555	10.07
364.766	75.6
364.976	-14.51
365.187	1.88
365.398	-32.94
365.608	-39.08
365.819	-63.66
366.03	1.88
366.24	65.36
366.451	-213.16
366.662	112.47
366.872	28.5
367.083	153.43
367.293	-61.61
367.504	24.4
367.714	36.69
367.925	63.32
368.135	-16.55
368.346	5.97
368.557	-82.09
368.767	44.88
368.977	-4.27
369.188	61.27
369.398	34.64
369.609	59.22
369.819	-12.46
370.03	-16.55
370.24	104.28
370.451	-20.65
370.661	5.97
370.871	126.8
371.082	55.12
371.292	75.6
371.502	20.31
371.713	112.47
371.923	-18.6
372.133	-39.08
372.344	-0.17
372.554	102.23
372.764	-6.31
372.975	22.36
373.185	3.93
373.395	26.45
373.605	-28.84
373.816	32.6
374.026	32.6
374.236	-53.42
374.446	-10.41
374.656	-57.51
374.867	-4.27
375.077	-22.7
375.287	102.23
375.497	5.97
375.707	53.08
375.917	-49.32
376.127	5.97
376.338	87.89
376.548	24.4
376.758	-55.47
376.968	28.5
377.178	1.88
377.388	30.55
377.598	-30.89
377.808	-45.23
378.018	91.99
378.228	10.07
378.438	-80.04
378.648	-127.14
378.858	83.8
379.068	-49.32
379.278	-6.31
379.488	-57.51
379.698	-61.61
379.908	-14.51
380.118	-28.84
380.327	34.64
380.537	-118.95
380.747	-102.57
380.957	-0.17
381.167	-30.89
381.377	-16.55
381.587	5.97
381.796	61.27
382.006	-16.55
382.216	32.6
382.426	14.17
382.636	-49.32
382.845	-80.04
383.055	36.69
383.265	102.23
383.475	-59.56
383.684	-4.27
383.894	-82.09
384.104	-77.99
384.313	128.85
384.523	69.46
384.733	59.22
384.942	-2.22
385.152	-6.31
385.362	-2.22
385.571	-43.18
385.781	-16.55
385.991	30.55
386.2	30.55
386.41	-26.79
386.619	16.21
386.829	143.19
387.038	-59.56
387.248	87.89
387.457	42.84
387.667	81.75
387.876	36.69
388.086	40.79
388.295	-37.03
388.505	106.32
388.714	85.84
388.924	16.21
389.133	96.08
389.343	20.31
389.552	-80.04
389.762	53.08
389.971	-18.6
390.18	-65.71
390.39	20.31
390.599	69.46
390.808	-41.13
391.018	10.07
391.227	159.57
391.436	16.21
391.646	34.64
391.855	65.36
392.064	-57.51
392.274	184.15
392.483	24.4
392.692	38.74
392.901	-49.32
393.111	36.69
393.32	20.31
393.529	89.94
393.738	8.02
393.947	-4.27
394.157	118.61
394.366	26.45
394.575	67.41
394.784	-43.18
394.993	-18.6
395.202	108.37
395.411	24.4
395.62	147.28
395.83	155.47
396.039	28.5
396.248	5.97
396.457	85.84
396.666	-84.14
396.875	-82.09
397.084	96.08
397.293	18.26
397.502	-30.89
397.711	-51.37
397.92	38.74
398.129	-34.99
398.338	116.56
398.547	3.93
398.756	10.07
398.965	116.56
399.174	1.88
399.382	59.22
399.591	-110.76
399.8	36.69
400.009	-8.36
400.218	34.64
400.427	46.93
400.636	38.74
400.844	-20.65
401.053	110.42
401.262	-86.19
401.471	38.74
401.68	-12.46
401.888	110.42
402.097	59.22
402.306	5.97
402.515	24.4
402.723	12.12
402.932	18.26
403.141	48.98
403.35	24.4
403.558	-67.75
403.767	40.79
403.976	61.27
404.184	42.84
404.393	44.88
404.602	-16.55
404.81	34.64
405.019	-26.79
405.227	34.64
405.436	36.69
405.645	20.31
405.853	-32.94
406.062	79.7
406.27	175.95
406.479	-18.6
406.687	-94.38
406.896	-71.85
407.104	114.52
407.313	36.69
407.521	81.75
407.73	-12.46
407.938	53.08
408.147	16.21
408.355	3.93
408.563	69.46
408.772	-84.14
408.98	116.56
409.189	28.5
409.397	-18.6
409.605	5.97
409.814	81.75
410.022	1.88
410.23	147.28
410.439	51.03
410.647	-14.51
410.855	-20.65
411.064	12.12
411.272	-65.71
411.48	59.22
411.688	16.21
411.897	42.84
412.105	5.97
412.313	46.93
412.521	-26.79
412.73	130.9
412.938	34.64
413.146	-41.13
413.354	67.41
413.562	-16.55
413.77	61.27
413.979	-4.27
414.187	-2.22
414.395	24.4
414.603	20.31
414.811	14.17
415.019	79.7
415.227	-22.7
415.435	48.98
415.643	57.17
415.851	1.88
416.059	18.26
416.267	1.88
416.475	-22.7
416.683	-22.7
416.891	46.93
417.099	46.93
417.307	75.6
417.515	34.64
417.723	96.08
417.931	-2.22
418.139	145.24
418.347	-4.27
418.555	51.03
418.763	44.88
418.971	44.88
419.179	-59.56
419.386	22.36
419.594	-51.37
419.802	34.64
420.01	34.64
420.218	57.17
420.426	-47.27
420.633	36.69
420.841	96.08
421.049	-61.61
421.257	55.12
421.464	28.5
421.672	30.55
421.88	-26.79
422.088	-18.6
422.295	-34.99
422.503	89.94
422.711	67.41
422.918	63.32
423.126	-75.95
423.334	-16.55
423.541	40.79
423.749	-92.33
423.956	10.07
424.164	55.12
424.372	100.18
424.579	-98.47
424.787	44.88
424.994	5.97
425.202	-24.75
425.409	44.88
425.617	124.76
425.824	-10.41
426.032	38.74
426.239	87.89
426.447	114.52
426.654	-90.28
426.862	16.21
427.069	-16.55
427.277	24.4
427.484	32.6
427.692	51.03
427.899	-0.17
428.106	40.79
428.314	81.75
428.521	94.04
428.728	71.51
428.936	79.7
429.143	59.22
429.351	40.79
429.558	46.93
429.765	-14.51
429.972	106.32
430.18	-39.08
430.387	36.69
430.594	-63.66
430.801	-2.22
431.009	26.45
431.216	-0.17
431.423	42.84
431.63	-12.46
431.838	30.55
432.045	135
432.252	79.7
432.459	65.36
432.666	48.98
432.873	79.7
433.081	46.93
433.288	42.84
433.495	-104.62
433.702	-65.71
433.909	-47.27
434.116	83.8
434.323	1.88
434.53	-8.36
434.737	-14.51
434.944	34.64
435.151	-28.84
435.358	-141.48
435.565	5.97
435.772	-100.52
435.979	46.93
436.186	91.99
436.393	32.6
436.6	75.6
436.807	-4.27
437.014	10.07
437.221	-6.31
437.428	104.28
437.635	91.99
437.841	59.22
438.048	-24.75
438.255	-16.55
438.462	38.74
438.669	-28.84
438.876	-53.42
439.082	-43.18
439.289	-77.99
439.496	-18.6
439.703	-75.95
439.91	-94.38
440.116	71.51
440.323	-69.8
440.53	-92.33
440.737	-82.09
440.943	75.6
441.15	59.22
441.357	-110.76
441.563	42.84
441.77	73.56
441.977	83.8
442.183	-26.79
442.39	81.75
442.597	-12.46
442.803	-37.03
443.01	59.22
443.216	-86.19
443.423	173.91
443.63	-24.75
443.836	165.71
444.043	32.6
444.249	40.79
444.456	71.51
444.662	10.07
444.869	20.31
445.075	1.88
445.282	34.64
445.488	57.17
445.695	-104.62
445.901	12.12
446.107	75.6
446.314	-14.51
446.52	-34.99
446.727	40.79
446.933	-47.27
447.139	26.45
447.346	20.31
447.552	-20.65
447.759	-82.09
447.965	18.26
448.171	-26.79
448.378	46.93
448.584	42.84
448.79	91.99
448.996	-59.56
449.203	65.36
449.409	14.17
449.615	55.12
449.821	36.69
450.028	-22.7
450.234	44.88
450.44	-24.75
450.646	40.79
450.852	-96.43
451.059	-28.84
451.265	53.08
451.471	-65.71
451.677	34.64
451.883	26.45
452.089	42.84
452.295	61.27
452.502	-6.31
452.708	-55.47
452.914	77.65
453.12	-0.17
453.326	42.84
453.532	30.55
453.738	-10.41
453.944	51.03
454.15	-49.32
454.356	96.08
454.562	3.93
454.768	-28.84
454.974	81.75
455.18	81.75
455.386	67.41
455.592	44.88
455.798	69.46
456.003	12.12
456.209	55.12
456.415	67.41
456.621	34.64
456.827	46.93
457.033	91.99
457.239	-82.09
457.444	-28.84
457.65	26.45
457.856	-37.03
458.062	38.74
458.268	-37.03
458.473	16.21
458.679	8.02
458.885	10.07
459.091	110.42
459.296	77.65
459.502	-14.51
459.708	-26.79
459.914	-34.99
460.119	32.6
460.325	-151.72
460.531	26.45
460.736	102.23
460.942	96.08
461.147	26.45
461.353	77.65
461.559	-20.65
461.764	22.36
461.97	-55.47
462.175	65.36
462.381	71.51
462.587	-82.09
462.792	-190.63
462.998	124.76
463.203	71.51
463.409	-49.32
463.614	48.98
463.82	-18.6
464.025	-53.42
464.231	-55.47
464.436	40.79
464.641	32.6
464.847	57.17
465.052	-22.7
465.258	1.88
465.463	16.21
465.669	1.88
465.874	141.14
466.079	63.32
466.285	147.28
466.49	143.19
466.695	100.18
466.901	67.41
467.106	-92.33
467.311	-88.23
467.516	-37.03
467.722	-28.84
467.927	28.5
468.132	-43.18
468.338	-43.18
468.543	53.08
468.748	-32.94
468.953	-0.17
469.158	40.79
469.364	61.27
469.569	-39.08
469.774	-8.36
469.979	51.03
470.184	24.4
470.389	28.5
470.594	118.61
470.8	-34.99
471.005	8.02
471.21	10.07
471.415	-57.51
471.62	79.7
471.825	55.12
472.03	5.97
472.235	-55.47
472.44	-26.79
472.645	-20.65
472.85	81.75
473.055	20.31
473.26	85.84
473.465	22.36
473.67	-14.51
473.875	53.08
474.08	1.88
474.285	55.12
474.49	-77.99
474.695	26.45
474.899	-16.55
475.104	-149.67
475.309	-2.22
475.514	16.21
475.719	-135.34
475.924	79.7
476.128	-12.46
476.333	-88.23
476.538	-67.75
476.743	141.14
476.948	-37.03
477.152	128.85
477.357	-10.41
477.562	69.46
477.767	30.55
477.971	26.45
478.176	120.66
478.381	-18.6
478.585	46.93
478.79	20.31
478.995	36.69
479.199	-28.84
479.404	-12.46
479.609	-49.32
479.813	61.27
480.018	81.75
480.223	55.12
480.427	149.33
480.632	46.93
480.836	36.69
481.041	59.22
481.245	98.13
481.45	-14.51
481.654	12.12
481.859	-82.09
482.063	128.85
482.268	85.84
482.472	-55.47
482.677	104.28
482.881	-6.31
483.086	-61.61
483.29	77.65
483.495	89.94
483.699	65.36
483.903	-94.38
484.108	20.31
484.312	24.4
484.517	91.99
484.721	5.97
484.925	-39.08
485.13	-71.85
485.334	26.45
485.538	-71.85
485.743	30.55
485.947	-88.23
486.151	34.64
486.355	73.56
486.56	-26.79
486.764	-0.17
486.968	85.84
487.172	-12.46
487.377	24.4
487.581	69.46
487.785	73.56
487.989	122.71
488.193	-73.9
488.397	57.17
488.602	73.56
488.806	-6.31
489.01	91.99
489.214	65.36
489.418	100.18
489.622	-82.09
489.826	40.79
490.03	42.84
490.234	-45.23
490.438	-18.6
490.642	-22.7
490.846	-2.22
491.05	20.31
491.254	-288.93
491.458	157.52
491.662	-82.09
491.866	175.95
492.07	-14.51
492.274	-30.89
492.478	-73.9
492.682	126.8
492.886	-32.94
493.09	-34.99
493.294	98.13
493.498	69.46
493.701	-22.7
493.905	79.7
494.109	32.6
494.313	-12.46
494.517	-12.46
494.721	65.36
494.924	46.93
495.128	67.41
495.332	-32.94
495.536	-61.61
495.739	-61.61
495.943	83.8
496.147	81.75
496.351	12.12
496.554	-26.79
496.758	-2.22
496.962	-67.75
497.165	48.98
497.369	-14.51
497.573	96.08
497.776	24.4
497.98	-34.99
498.184	-43.18
498.387	-67.75
498.591	-88.23
498.794	73.56
498.998	-2.22
499.202	155.47
499.405	-24.75
499.609	122.71
499.812	-14.51
500.016	-75.95
500.219	10.07
500.423	12.12
500.626	-22.7
500.83	18.26
501.033	24.4
501.237	73.56
501.44	-8.36
501.643	-47.27
501.847	10.07
502.05	77.65
502.254	18.26
502.457	124.76
502.66	-4.27
502.864	126.8
503.067	14.17
503.271	-8.36
503.474	24.4
503.677	139.09
503.88	73.56
504.084	71.51
504.287	-82.09
504.49	65.36
504.694	-28.84
504.897	-59.56
505.1	81.75
505.303	89.94
505.507	-106.67
505.71	-86.19
505.913	3.93
506.116	-6.31
506.319	106.32
506.522	-6.31
506.726	61.27
506.929	73.56
507.132	18.26
507.335	44.88
507.538	-4.27
507.741	61.27
507.944	-49.32
508.147	-20.65
508.35	-49.32
508.553	42.84
508.756	-18.6
508.959	40.79
509.163	71.51
509.366	122.71
509.569	10.07
509.771	-57.51
509.974	165.71
510.177	-37.03
510.38	-55.47
510.583	169.81
510.786	-4.27
510.989	18.26
511.192	53.08
511.395	18.26
511.598	10.07
511.801	34.64
512.004	-73.9
512.206	-94.38
512.409	-14.51
512.612	-8.36
512.815	-2.22
513.018	18.26
513.22	32.6
513.423	32.6
513.626	38.74
513.829	-61.61
514.032	16.21
514.234	46.93
514.437	26.45
514.64	40.79
514.842	10.07
515.045	-4.27
515.248	-63.66
515.45	53.08
515.653	-63.66
515.856	87.89
516.058	-129.19
516.261	71.51
516.464	-43.18
516.666	24.4
516.869	118.61
517.071	-4.27
517.274	108.37
517.477	-92.33
517.679	14.17
517.882	46.93
518.084	-22.7
518.287	-84.14
518.489	-16.55
518.692	16.21
518.894	46.93
519.097	112.47
519.299	-45.23
519.501	53.08
519.704	-69.8
519.906	71.51
520.109	-2.22
520.311	-16.55
520.514	81.75
520.716	-51.37
520.918	-86.19
521.121	12.12
521.323	-34.99
521.525	-2.22
521.728	71.51
521.93	44.88
522.132	87.89
522.335	-22.7
522.537	-2.22
522.739	24.4
522.941	-45.23
523.144	-28.84
523.346	-77.99
523.548	81.75
523.75	42.84
523.952	-34.99
524.155	65.36
524.357	20.31
524.559	-73.9
524.761	-41.13
524.963	-14.51
525.165	-37.03
525.368	-10.41
525.57	30.55
525.772	5.97
525.974	-86.19
526.176	16.21
526.378	-32.94
526.58	104.28
526.782	69.46
526.984	28.5
527.186	-55.47
527.388	143.19
527.59	69.46
527.792	44.88
527.994	83.8
528.196	83.8
528.398	-55.47
528.6	26.45
528.802	36.69
529.004	22.36
529.206	3.93
529.408	94.04
529.609	14.17
529.811	96.08
530.013	1.88
530.215	18.26
530.417	14.17
530.619	-34.99
530.821	151.38
531.022	42.84
531.224	3.93
531.426	69.46
531.628	-16.55
531.829	-37.03
532.031	65.36
532.233	79.7
532.435	32.6
532.636	-0.17
532.838	110.42
533.04	-104.62
533.241	-0.17
533.443	120.66
533.645	108.37
533.846	-6.31
534.048	-8.36
534.25	96.08
534.451	63.32
534.653	-114.86
534.855	98.13
535.056	-53.42
535.258	-8.36
535.459	71.51
535.661	30.55
535.862	18.26
536.064	-14.51
536.265	16.21
536.467	44.88
536.668	20.31
536.87	51.03
537.071	-55.47
537.273	89.94
537.474	-49.32
537.676	-4.27
537.877	30.55
538.078	-43.18
538.28	3.93
538.481	-61.61
538.683	55.12
538.884	34.64
539.085	59.22
539.287	-0.17
539.488	89.94
539.689	1.88
539.891	51.03
540.092	-32.94
540.293	-51.37
540.495	1.88
540.696	59.22
540.897	-30.89
541.098	61.27
541.3	48.98
541.501	-30.89
541.702	102.23
541.903	26.45
542.104	96.08
542.306	-34.99
542.507	38.74
542.708	59.22
542.909	-12.46
543.11	-14.51
543.311	89.94
543.512	-28.84
543.713	-30.89
543.915	-59.56
544.116	-12.46
544.317	10.07
544.518	85.84
544.719	-6.31
544.92	85.84
545.121	-43.18
545.322	46.93
545.523	-77.99
545.724	106.32
545.925	36.69
546.126	-4.27
546.327	36.69
546.528	-16.55
546.729	63.32
546.929	-20.65
547.13	-14.51
547.331	-47.27
547.532	-16.55
547.733	98.13
547.934	65.36
548.135	94.04
548.336	71.51
548.536	34.64
548.737	-18.6
548.938	12.12
549.139	-16.55
549.34	-20.65
549.54	5.97
549.741	-39.08
549.942	-22.7
550.143	-284.84
550.343	126.8
550.544	40.79
550.745	55.12
550.945	69.46
551.146	28.5
551.347	-43.18
551.547	-14.51
551.748	51.03
551.949	-47.27
552.149	81.75
552.35	-86.19
552.551	38.74
552.751	46.93
552.952	-28.84
553.152	14.17
553.353	-121
553.553	8.02
553.754	-12.46
553.954	40.79
554.155	40.79
554.356	18.26
554.556	-8.36
554.756	-14.51
554.957	102.23
555.157	42.84
555.358	151.38
555.558	22.36
555.759	1.88
555.959	-26.79
556.159	-55.47
556.36	22.36
556.56	151.38
556.761	-20.65
556.961	48.98
557.161	-69.8
557.362	65.36
557.562	14.17
557.762	-14.51
557.963	-32.94
558.163	40.79
558.363	-22.7
558.563	81.75
558.764	-32.94
558.964	73.56
559.164	20.31
559.364	61.27
559.565	-82.09
559.765	1.88
559.965	-45.23
560.165	46.93
560.365	-32.94
560.565	3.93
560.766	-69.8
560.966	83.8
561.166	-118.95
561.366	83.8
561.566	59.22
561.766	-32.94
561.966	12.12
562.166	87.89
562.366	22.36
562.566	135
562.766	-6.31
562.966	-108.71
563.166	34.64
563.366	34.64
563.566	-18.6
563.766	14.17
563.966	34.64
564.166	28.5
564.366	12.12
564.566	171.86
564.766	20.31
564.966	-86.19
565.166	-49.32
565.366	-39.08
565.565	-8.36
565.765	3.93
565.965	22.36
566.165	102.23
566.365	87.89
566.565	-30.89
566.764	75.6
566.964	34.64
567.164	-28.84
567.364	1.88
567.564	89.94
567.763	112.47
567.963	34.64
568.163	79.7
568.362	71.51
568.562	130.9
568.762	32.6
568.961	30.55
569.161	22.36
569.361	1.88
569.56	98.13
569.76	-80.04
569.96	114.52
570.159	34.64
570.359	-84.14
570.558	55.12
570.758	34.64
570.958	-51.37
571.157	10.07
571.357	147.28
571.556	-41.13
571.756	73.56
571.955	-30.89
572.155	-26.79
572.354	14.17
572.554	-49.32
572.753	75.6
572.953	102.23
573.152	40.79
573.351	-57.51
573.551	-10.41
573.75	5.97
573.95	24.4
574.149	-45.23
574.348	-8.36
574.548	1.88
574.747	51.03
574.946	-82.09
575.146	-4.27
575.345	-55.47
575.544	-121
575.744	40.79
575.943	-12.46
576.142	79.7
576.342	-47.27
576.541	30.55
576.74	-28.84
576.939	85.84
577.138	48.98
577.338	151.38
577.537	-194.73
577.736	3.93
577.935	-0.17
578.134	-8.36
578.333	-14.51
578.533	44.88
578.732	-24.75
578.931	-77.99
579.13	-69.8
579.329	-6.31
579.528	-80.04
579.727	38.74
579.926	-41.13
580.125	96.08
580.324	-20.65
580.523	38.74
580.722	-12.46
580.921	-10.41
581.12	-12.46
581.319	32.6
581.518	83.8
581.717	44.88
581.916	-34.99
582.115	96.08
582.314	-24.75
582.513	26.45
582.712	-34.99
582.911	147.28
583.109	-22.7
583.308	12.12
583.507	-18.6
583.706	40.79
583.905	-22.7
584.104	48.98
584.302	-26.79
584.501	59.22
584.7	-53.42
584.899	-53.42
585.098	-0.17
585.296	71.51
585.495	-32.94
585.694	-57.51
585.892	89.94
586.091	-59.56
586.29	-39.08
586.488	-39.08
586.687	36.69
586.886	69.46
587.084	20.31
587.283	12.12
587.482	-34.99
587.68	-65.71
587.879	12.12
588.077	28.5
588.276	-14.51
588.475	-75.95
588.673	-18.6
588.872	-6.31
589.07	94.04
589.269	22.36
589.467	91.99
589.666	-121
589.864	57.17
590.063	-2.22
590.261	-8.36
590.46	1.88
590.658	-28.84
590.857	-20.65
591.055	46.93
591.253	-30.89
591.452	-39.08
591.65	36.69
591.848	-14.51
592.047	42.84
592.245	69.46
592.444	122.71
592.642	-59.56
592.84	100.18
593.038	-65.71
593.237	-82.09
593.435	34.64
593.633	132.95
593.832	-69.8
594.03	-49.32
594.228	-59.56
594.426	28.5
594.624	24.4
594.823	8.02
595.021	32.6
595.219	40.79
595.417	32.6
595.615	38.74
595.813	34.64
596.012	28.5
596.21	63.32
596.408	59.22
596.606	38.74
596.804	-8.36
597.002	-34.99
597.2	57.17
597.398	14.17
597.596	104.28
597.794	34.64
597.992	71.51
598.19	-18.6
598.388	-10.41
598.586	-53.42
598.784	157.52
598.982	-4.27
599.18	204.63
599.378	79.7
599.576	69.46
599.774	46.93
599.972	-8.36
600.17	-14.51
600.368	5.97
600.565	51.03
600.763	73.56
600.961	63.32
601.159	-16.55
601.357	-47.27
601.555	53.08
601.752	18.26
601.95	-53.42
602.148	3.93
602.346	1.88
602.544	155.47
602.741	-108.71
602.939	-41.13
603.137	-37.03
603.334	-168.1
603.532	83.8
603.73	-92.33
603.927	165.71
604.125	48.98
604.323	-12.46
604.52	-26.79
604.718	14.17
604.916	-14.51
605.113	-96.43
605.311	38.74
605.508	34.64
605.706	61.27
605.904	14.17
606.101	-90.28
606.299	34.64
606.496	89.94
606.694	-2.22
606.891	12.12
607.089	-32.94
607.286	-53.42
607.484	73.56
607.681	22.36
607.879	94.04
608.076	-24.75
608.273	-63.66
608.471	-18.6
608.668	-26.79
608.866	-41.13
609.063	-114.86
609.26	-39.08
609.458	-20.65
609.655	57.17
609.852	-73.9
610.05	81.75
610.247	-55.47
610.444	-8.36
610.642	-18.6
610.839	-59.56
611.036	8.02
611.233	-57.51
611.431	18.26
611.628	-0.17
611.825	26.45
612.022	-84.14
612.22	38.74
612.417	-67.75
612.614	36.69
612.811	38.74
613.008	89.94
613.205	-16.55
613.402	-14.51
613.6	28.5
613.797	-32.94
613.994	-125.1
614.191	22.36
614.388	124.76
614.585	-30.89
614.782	8.02
614.979	116.56
615.176	-65.71
615.373	-98.47
615.57	83.8
615.767	44.88
615.964	40.79
616.161	-96.43
616.358	44.88
616.555	65.36
616.752	40.79
616.949	87.89
617.146	24.4
617.343	28.5
617.539	110.42
617.736	30.55
617.933	-18.6
618.13	36.69
618.327	48.98
618.524	38.74
618.721	-57.51
618.917	-30.89
619.114	-53.42
619.311	40.79
619.508	-123.05
619.704	55.12
619.901	-8.36
620.098	40.79
620.295	10.07
620.491	-2.22
620.688	32.6
620.885	40.79
621.081	-49.32
621.278	32.6
621.475	36.69
621.671	-82.09
621.868	46.93
622.065	-18.6
622.261	126.8
622.458	28.5
622.655	63.32
622.851	-57.51
623.048	-37.03
623.244	10.07
623.441	-34.99
623.637	227.15
623.834	-82.09
624.03	-20.65
624.227	-37.03
624.423	30.55
624.62	120.66
624.816	20.31
625.013	42.84
625.209	73.56
625.406	-10.41
625.602	-59.56
625.798	102.23
625.995	-137.38
626.191	-26.79
626.388	24.4
626.584	77.65
626.78	-45.23
626.977	-28.84
627.173	3.93
627.369	-6.31
627.566	71.51
627.762	30.55
627.958	36.69
628.154	-80.04
628.351	-16.55
628.547	-51.37
628.743	53.08
628.939	40.79
629.136	-45.23
629.332	-24.75
629.528	73.56
629.724	42.84
629.92	34.64
630.116	24.4
630.313	-65.71
630.509	-63.66
630.705	147.28
630.901	24.4
631.097	3.93
631.293	-67.75
631.489	-24.75
631.685	-47.27
631.881	53.08
632.077	32.6
632.273	-22.7
632.469	-24.75
632.665	75.6
632.861	-84.14
633.057	102.23
633.253	44.88
633.449	-57.51
633.645	-41.13
633.841	53.08
634.037	28.5
634.233	-59.56
634.429	16.21
634.625	28.5
634.821	3.93
635.017	36.69
635.212	-123.05
635.408	-63.66
635.604	12.12
635.8	38.74
635.996	-73.9
636.191	24.4
636.387	-30.89
636.583	12.12
636.779	-28.84
636.975	-22.7
637.17	16.21
637.366	-16.55
637.562	-77.99
637.757	-8.36
637.953	-14.51
638.149	-30.89
638.345	57.17
638.54	-39.08
638.736	-32.94
638.931	-49.32
639.127	-24.75
639.323	22.36
639.518	85.84
639.714	-71.85
639.909	-32.94
640.105	108.37
640.301	-28.84
640.496	137.04
640.692	94.04
640.887	-10.41
641.083	26.45
641.278	173.91
641.474	36.69
641.669	-77.99
641.865	-16.55
642.06	104.28
642.256	-63.66
642.451	16.21
642.646	-24.75
642.842	-0.17
643.037	12.12
643.233	18.26
643.428	89.94
643.623	-59.56
643.819	-127.14
644.014	42.84
644.209	-10.41
644.405	14.17
644.6	-57.51
644.795	59.22
644.99	-69.8
645.186	122.71
645.381	34.64
645.576	-43.18
645.771	81.75
645.967	-10.41
646.162	-71.85
646.357	38.74
646.552	108.37
646.747	98.13
646.943	20.31
647.138	-18.6
647.333	48.98
647.528	-344.23
647.723	8.02
647.918	-28.84
648.113	85.84
648.308	20.31
648.504	-18.6
648.699	-88.23
648.894	42.84
649.089	-22.7
649.284	-112.81
649.479	-4.27
649.674	-41.13
649.869	38.74
650.064	-26.79
650.259	69.46
650.454	3.93
650.649	-96.43
650.844	-45.23
651.038	61.27
651.233	22.36
651.428	65.36
651.623	30.55
651.818	-90.28
652.013	-0.17
652.208	98.13
652.403	34.64
652.597	-16.55
652.792	-80.04
652.987	200.53
653.182	-104.62
653.377	-6.31
653.571	-8.36
653.766	-63.66
653.961	-26.79
654.156	165.71
654.35	-47.27
654.545	-28.84
654.74	5.97
654.935	-6.31
655.129	83.8
655.324	128.85
655.519	-2.22
655.713	81.75
655.908	-30.89
656.102	155.47
656.297	57.17
656.492	26.45
656.686	57.17
656.881	5.97
657.075	-88.23
657.27	12.12
657.464	-41.13
657.659	122.71
657.854	-118.95
658.048	110.42
658.243	51.03
658.437	-10.41
658.631	-106.67
658.826	73.56
659.02	12.12
659.215	32.6
659.409	-67.75
659.604	-63.66
659.798	-2.22
659.992	-41.13
660.187	-6.31
660.381	18.26
660.576	-80.04
660.77	63.32
660.964	96.08
661.159	87.89
661.353	77.65
661.547	-6.31
661.742	65.36
661.936	104.28
662.13	12.12
662.324	61.27
662.519	-53.42
662.713	-30.89
662.907	-92.33
663.101	77.65
663.295	1.88
663.49	-53.42
663.684	30.55
663.878	51.03
664.072	126.8
664.266	110.42
664.46	38.74
664.654	77.65
664.849	-10.41
665.043	73.56
665.237	38.74
665.431	-71.85
665.625	-39.08
665.819	51.03
666.013	61.27
666.207	-14.51
666.401	108.37
666.595	36.69
666.789	3.93
666.983	-34.99
667.177	48.98
667.371	-16.55
667.565	-22.7
667.759	-43.18
667.953	-12.46
668.147	59.22
668.34	61.27
668.534	14.17
668.728	-51.37
668.922	-24.75
669.116	71.51
669.31	75.6
669.504	-75.95
669.697	-41.13
669.891	-24.75
670.085	59.22
670.279	34.64
670.473	5.97
670.666	5.97
670.86	-0.17
671.054	30.55
671.248	46.93
671.441	-24.75
671.635	161.62
671.829	67.41
672.022	-61.61
672.216	16.21
672.41	94.04
672.603	-51.37
672.797	20.31
672.99	-22.7
673.184	46.93
673.378	-43.18
673.571	53.08
673.765	22.36
673.958	77.65
674.152	8.02
674.345	69.46
674.539	22.36
674.733	-20.65
674.926	36.69
675.12	42.84
675.313	8.02
675.506	-14.51
675.7	26.45
675.893	59.22
676.087	40.79
676.28	30.55
676.474	153.43
676.667	22.36
676.86	-92.33
677.054	69.46
677.247	8.02
677.441	3.93
677.634	-43.18
677.827	-43.18
678.02	55.12
678.214	98.13
678.407	-88.23
678.6	10.07
678.794	55.12
678.987	65.36
679.18	-51.37
679.373	-57.51
679.567	63.32
679.76	-37.03
679.953	5.97
680.146	-63.66
680.339	59.22
680.533	71.51
680.726	73.56
680.919	32.6
681.112	10.07
681.305	-63.66
681.498	1.88
681.691	-110.76
681.884	-10.41
682.077	-14.51
682.271	-139.43
682.464	63.32
682.657	22.36
682.85	-8.36
683.043	51.03
683.236	34.64
683.429	-24.75
683.622	-45.23
683.815	-55.47
684.008	36.69
684.201	-34.99
684.393	20.31
684.586	18.26
684.779	71.51
684.972	79.7
685.165	-55.47
685.358	-10.41
685.551	59.22
685.744	83.8
685.937	-2.22
686.129	77.65
686.322	102.23
686.515	-32.94
686.708	-69.8
686.901	-8.36
687.093	48.98
687.286	36.69
687.479	55.12
687.672	-88.23
687.864	-34.99
688.057	77.65
688.25	-59.56
688.442	79.7
688.635	-24.75
688.828	-37.03
689.02	51.03
689.213	79.7
689.406	73.56
689.598	-77.99
689.791	-0.17
689.984	57.17
690.176	48.98
690.369	-32.94
690.561	-88.23
690.754	-16.55
690.946	-12.46
691.139	-51.37
691.331	89.94
691.524	-55.47
691.716	91.99
691.909	-82.09
692.101	-8.36
692.294	24.4
692.486	-37.03
692.679	20.31
692.871	-86.19
693.063	-16.55
693.256	53.08
693.448	59.22
693.641	-18.6
693.833	83.8
694.025	57.17
694.218	30.55
694.41	57.17
694.602	22.36
694.795	57.17
694.987	-73.9
695.179	77.65
695.372	-100.52
695.564	-28.84
695.756	-4.27
695.948	-8.36
696.14	34.64
696.333	-20.65
696.525	-47.27
696.717	130.9
696.909	-43.18
697.101	53.08
697.294	1.88
697.486	-12.46
697.678	42.84
697.87	71.51
698.062	-69.8
698.254	-10.41
698.446	-30.89
698.638	12.12
698.83	89.94
699.022	-10.41
699.215	-30.89
699.407	1.88
699.599	-90.28
699.791	-20.65
699.983	8.02
700.175	65.36
700.367	102.23
700.558	38.74
700.75	-45.23
700.942	128.85
701.134	-26.79
701.326	-16.55
701.518	-14.51
701.71	8.02
701.902	44.88
702.094	32.6
702.286	-94.38
702.477	98.13
702.669	-24.75
702.861	-90.28
703.053	44.88
703.245	22.36
703.436	61.27
703.628	89.94
703.82	94.04
704.012	110.42
704.203	-57.51
704.395	-41.13
704.587	30.55
704.779	165.71
704.97	-12.46
705.162	30.55
705.354	32.6
705.545	1.88
705.737	10.07
705.929	-12.46
706.12	-77.99
706.312	61.27
706.503	-135.34
706.695	-0.17
706.887	-2.22
707.078	-84.14
707.27	-55.47
707.461	-77.99
707.653	57.17
707.844	-47.27
708.036	-63.66
708.227	57.17
708.419	14.17
708.61	1.88
708.802	10.07
708.993	59.22
709.185	61.27
709.376	1.88
709.567	-14.51
709.759	5.97
709.95	87.89
710.141	38.74
710.333	24.4
710.524	16.21
710.716	-92.33
710.907	28.5
711.098	-92.33
711.289	69.46
711.481	34.64
711.672	14.17
711.863	-43.18
712.055	36.69
712.246	24.4
712.437	-26.79
712.628	-77.99
712.82	-30.89
713.011	40.79
713.202	26.45
713.393	-24.75
713.584	14.17
713.775	3.93
713.967	46.93
714.158	89.94
714.349	-67.75
714.54	-0.17
714.731	22.36
714.922	36.69
715.113	94.04
715.304	63.32
715.495	94.04
715.686	-39.08
715.877	26.45
716.068	14.17
716.259	-45.23
716.45	5.97
716.641	42.84
716.832	-67.75
717.023	118.61
717.214	18.26
717.405	-43.18
717.596	18.26
717.787	-65.71
717.978	71.51
718.169	-53.42
718.36	-14.51
718.55	91.99
718.741	-106.67
718.932	104.28
719.123	108.37
719.314	10.07
719.505	34.64
719.695	10.07
719.886	67.41
720.077	-18.6
720.268	-18.6
720.458	61.27
720.649	-12.46
720.84	-22.7
721.031	-6.31
721.221	65.36
721.412	94.04
721.603	18.26
721.793	16.21
721.984	3.93
722.175	40.79
722.365	91.99
722.556	36.69
722.746	10.07
722.937	1.88
723.128	12.12
723.318	-8.36
723.509	83.8
723.699	1.88
723.89	36.69
724.08	-20.65
724.271	67.41
724.461	-39.08
724.652	48.98
724.842	-10.41
725.033	32.6
725.223	16.21
725.414	-24.75
725.604	-0.17
725.794	65.36
725.985	-24.75
726.175	83.8
726.366	36.69
726.556	16.21
726.746	65.36
726.937	85.84
727.127	8.02
727.317	-20.65
727.508	38.74
727.698	-82.09
727.888	-61.61
728.079	69.46
728.269	-73.9
728.459	-53.42
728.649	-61.61
728.84	-65.71
729.03	24.4
729.22	-133.29
729.41	63.32
729.6	132.95
729.791	-80.04
729.981	-92.33
730.171	20.31
730.361	3.93
730.551	-28.84
730.741	28.5
730.931	67.41
731.121	48.98
731.311	96.08
731.502	26.45
731.692	34.64
731.882	-20.65
732.072	-20.65
732.262	48.98
732.452	-32.94
732.642	51.03
732.832	-45.23
733.022	-41.13
733.212	135
733.402	-59.56
733.591	-0.17
733.781	-4.27
733.971	38.74
734.161	24.4
734.351	63.32
734.541	145.24
734.731	-4.27
734.921	-26.79
735.111	-8.36
735.3	114.52
735.49	10.07
735.68	-39.08
735.87	-24.75
736.06	-51.37
736.249	-8.36
736.439	30.55
736.629	44.88
736.819	89.94
737.008	32.6
737.198	53.08
737.388	34.64
737.577	151.38
737.767	24.4
737.957	-6.31
738.146	83.8
738.336	20.31
738.526	30.55
738.715	48.98
738.905	-102.57
739.094	12.12
739.284	71.51
739.474	-2.22
739.663	20.31
739.853	55.12
740.042	-6.31
740.232	8.02
740.421	38.74
740.611	5.97
740.8	137.04
740.99	20.31
741.179	10.07
741.369	-6.31
741.558	38.74
741.748	8.02
741.937	75.6
742.126	-24.75
742.316	-6.31
742.505	32.6
742.695	59.22
742.884	8.02
743.073	57.17
743.263	-14.51
743.452	-16.55
743.641	85.84
743.831	26.45
744.02	51.03
744.209	55.12
744.398	36.69
744.588	8.02
744.777	-90.28
744.966	-43.18
745.155	8.02
745.345	-28.84
745.534	108.37
745.723	159.57
745.912	40.79
746.101	-37.03
746.29	40.79
746.48	24.4
746.669	38.74
746.858	5.97
747.047	-4.27
747.236	-104.62
747.425	34.64
747.614	53.08
747.803	63.32
747.992	-4.27
748.181	210.77
748.37	-4.27
748.559	65.36
748.748	30.55
748.937	-65.71
749.126	75.6
749.315	42.84
749.504	94.04
749.693	10.07
749.882	44.88
750.071	-30.89
750.26	-57.51
750.449	-39.08
750.638	28.5
750.826	157.52
751.015	3.93
751.204	-53.42
751.393	42.84
751.582	10.07
751.771	-43.18
751.959	-16.55
752.148	-26.79
752.337	34.64
752.526	77.65
752.714	18.26
752.903	-112.81
753.092	8.02
753.281	10.07
753.469	-39.08
753.658	28.5
753.847	-26.79
754.035	-10.41
754.224	38.74
754.413	-39.08
754.601	-77.99
754.79	100.18
754.979	-14.51
755.167	8.02
755.356	75.6
755.544	147.28
755.733	57.17
755.921	83.8
756.11	-6.31
756.298	-49.32
756.487	-20.65
756.675	120.66
756.864	73.56
757.052	-49.32
757.241	-18.6
757.429	22.36
757.618	26.45
757.806	34.64
757.995	-77.99
758.183	-26.79
758.371	-45.23
758.56	55.12
758.748	-61.61
758.937	-18.6
759.125	-18.6
759.313	-59.56
759.502	114.52
759.69	-53.42
759.878	-69.8
760.066	-57.51
760.255	28.5
760.443	108.37
760.631	67.41
760.819	73.56
761.008	1.88
761.196	184.15
761.384	1.88
761.572	87.89
761.761	-43.18
761.949	-4.27
762.137	12.12
762.325	-67.75
762.513	-61.61
762.701	14.17
762.889	59.22
763.077	71.51
763.266	42.84
763.454	110.42
763.642	28.5
763.83	36.69
764.018	48.98
764.206	-71.85
764.394	128.85
764.582	-98.47
764.77	55.12
764.958	-55.47
765.146	30.55
765.334	-135.34
765.522	12.12
765.71	71.51
765.898	-18.6
766.085	53.08
766.273	61.27
766.461	89.94
766.649	-45.23
766.837	14.17
767.025	-18.6
767.213	-0.17
767.401	53.08
767.588	-8.36
767.776	57.17
767.964	-67.75
768.152	87.89
768.339	5.97
768.527	-43.18
768.715	-65.71
768.903	-6.31
769.09	-37.03
769.278	-2.22
769.466	-26.79
769.654	22.36
769.841	69.46
770.029	69.46
770.217	57.17
770.404	3.93
770.592	77.65
770.779	-73.9
770.967	-8.36
771.155	96.08
771.342	20.31
771.53	5.97
771.717	-43.18
771.905	26.45
772.092	-14.51
772.28	-88.23
772.467	69.46
772.655	-28.84
772.842	-80.04
773.03	94.04
773.217	124.76
773.405	26.45
773.592	42.84
773.78	81.75
773.967	-10.41
774.154	-129.19
774.342	38.74
774.529	85.84
774.717	-37.03
774.904	-69.8
775.091	46.93
775.279	137.04
775.466	77.65
775.653	-18.6
775.841	1.88
776.028	124.76
776.215	-16.55
776.402	16.21
776.59	-12.46
776.777	30.55
776.964	8.02
777.151	-41.13
777.338	42.84
777.526	81.75
777.713	20.31
777.9	-37.03
778.087	16.21
778.274	69.46
778.461	16.21
778.649	-77.99
778.836	-47.27
779.023	38.74
779.21	73.56
779.397	151.38
779.584	100.18
779.771	3.93
779.958	1.88
780.145	51.03
780.332	14.17
780.519	32.6
780.706	-51.37
780.893	69.46
781.08	12.12
781.267	-55.47
781.454	42.84
781.641	128.85
781.828	16.21
782.015	3.93
782.202	100.18
782.388	30.55
782.575	-51.37
782.762	-63.66
782.949	96.08
783.136	-57.51
783.323	-51.37
783.509	46.93
783.696	-88.23
783.883	-26.79
784.07	-55.47
784.257	34.64
784.443	14.17
784.63	14.17
784.817	18.26
785.004	-10.41
785.19	63.32
785.377	-28.84
785.564	75.6
785.75	94.04
785.937	44.88
786.124	-14.51
786.31	-4.27
786.497	26.45
786.683	81.75
786.87	30.55
787.057	10.07
787.243	5.97
787.43	57.17
787.616	44.88
787.803	14.17
787.989	14.17
788.176	-69.8
788.362	12.12
788.549	-59.56
788.735	196.43
788.922	-53.42
789.108	-24.75
789.295	-22.7
789.481	79.7
789.668	-2.22
789.854	30.55
790.04	-63.66
790.227	42.84
790.413	20.31
790.599	118.61
790.786	-0.17
790.972	46.93
791.158	85.84
791.345	-28.84
791.531	155.47
791.717	108.37
791.904	36.69
792.09	126.8
792.276	85.84
792.462	135
792.649	38.74
792.835	10.07
793.021	1.88
793.207	-49.32
793.393	48.98
793.58	71.51
793.766	-26.79
793.952	-14.51
794.138	94.04
794.324	73.56
794.51	12.12
794.696	8.02
794.882	3.93
795.069	46.93
795.255	102.23
795.441	-16.55
795.627	96.08
795.813	26.45
795.999	38.74
796.185	-39.08
796.371	3.93
796.557	94.04
796.743	81.75
796.929	-2.22
797.115	61.27
797.3	36.69
797.486	145.24
797.672	128.85
797.858	77.65
798.044	-73.9
798.23	-53.42
798.416	69.46
798.602	69.46
798.788	-88.23
798.973	-166.06
799.159	161.62
799.345	-61.61
799.531	44.88
799.717	-98.47
799.902	1.88
800.088	32.6
800.274	48.98
800.46	-49.32
800.645	20.31
800.831	-4.27
801.017	8.02
801.202	132.95
801.388	46.93
801.574	-41.13
801.759	159.57
801.945	-51.37
802.131	42.84
802.316	3.93
802.502	22.36
802.687	-43.18
802.873	83.8
803.058	-26.79
803.244	40.79
803.43	38.74
803.615	-30.89
803.801	-32.94
803.986	30.55
804.172	-32.94
804.357	40.79
804.543	34.64
804.728	-8.36
804.913	-20.65
805.099	20.31
805.284	-69.8
805.47	-45.23
805.655	26.45
805.84	18.26
806.026	87.89
806.211	24.4
806.397	24.4
806.582	-47.27
806.767	8.02
806.953	100.18
807.138	100.18
807.323	83.8
807.508	-16.55
807.694	18.26
807.879	8.02
808.064	-22.7
808.249	63.32
808.435	30.55
808.62	81.75
808.805	20.31
808.99	-47.27
809.175	-47.27
809.361	10.07
809.546	-63.66
809.731	3.93
809.916	5.97
810.101	61.27
810.286	-57.51
810.471	-67.75
810.656	-69.8
810.841	16.21
811.026	87.89
811.211	-20.65
811.396	-133.29
811.581	40.79
811.766	-10.41
811.951	42.84
812.136	-22.7
812.321	5.97
812.506	104.28
812.691	-57.51
812.876	94.04
813.061	28.5
813.246	85.84
813.431	32.6
813.616	-108.71
813.801	38.74
813.986	71.51
814.17	5.97
814.355	-47.27
814.54	36.69
814.725	89.94
814.91	8.02
815.094	20.31
815.279	10.07
815.464	94.04
815.649	85.84
815.833	10.07
816.018	63.32
816.203	12.12
816.388	-24.75
816.572	10.07
816.757	26.45
816.942	44.88
817.126	-18.6
817.311	51.03
817.496	59.22
817.68	91.99
817.865	44.88
818.049	20.31
818.234	-63.66
818.419	26.45
818.603	87.89
818.788	-49.32
818.972	26.45
819.157	120.66
819.341	44.88
819.526	8.02
819.71	30.55
819.895	55.12
820.079	24.4
820.264	-71.85
820.448	-28.84
820.633	-39.08
820.817	-4.27
821.001	24.4
821.186	81.75
821.37	75.6
821.554	-45.23
821.739	-59.56
821.923	-6.31
822.108	-6.31
822.292	-10.41
822.476	34.64
822.66	102.23
822.845	14.17
823.029	46.93
823.213	-14.51
823.398	1.88
823.582	51.03
823.766	112.47
823.95	-45.23
824.134	-2.22
824.319	-80.04
824.503	-47.27
824.687	18.26
824.871	26.45
825.055	83.8
825.239	59.22
825.423	20.31
825.608	5.97
825.792	-20.65
825.976	32.6
826.16	40.79
826.344	-8.36
826.528	-39.08
826.712	12.12
826.896	-59.56
827.08	-20.65
827.264	71.51
827.448	-80.04
827.632	-73.9
827.816	48.98
828	96.08
828.184	-86.19
828.368	42.84
828.552	89.94
828.736	16.21
828.919	-34.99
829.103	22.36
829.287	26.45
829.471	63.32
829.655	-10.41
829.839	63.32
830.023	85.84
830.206	28.5
830.39	-43.18
830.574	-22.7
830.758	-34.99
830.941	-4.27
831.125	32.6
831.309	-125.1
831.493	3.93
831.676	-32.94
831.86	-84.14
832.044	106.32
832.227	36.69
832.411	55.12
832.595	89.94
832.778	-88.23
832.962	137.04
833.146	26.45
833.329	-55.47
833.513	22.36
833.696	14.17
833.88	-41.13
834.064	40.79
834.247	48.98
834.431	-2.22
834.614	67.41
834.798	-32.94
834.981	5.97
835.165	26.45
835.348	32.6
835.532	48.98
835.715	-57.51
835.898	51.03
836.082	-14.51
836.265	-77.99
836.449	-6.31
836.632	22.36
836.815	79.7
836.999	57.17
837.182	-77.99
837.365	-0.17
837.549	-16.55
837.732	-14.51
837.915	63.32
838.099	36.69
838.282	16.21
838.465	57.17
838.648	-26.79
838.832	16.21
839.015	-16.55
839.198	46.93
839.381	8.02
839.565	-82.09
839.748	-30.89
839.931	5.97
840.114	40.79
840.297	-6.31
840.48	-18.6
840.663	-90.28
840.847	-16.55
841.03	5.97
841.213	-47.27
841.396	-71.85
841.579	114.52
841.762	-24.75
841.945	38.74
842.128	-139.43
842.311	5.97
842.494	151.38
842.677	28.5
842.86	-10.41
843.043	-61.61
843.226	100.18
843.409	-65.71
843.592	-34.99
843.775	71.51
843.958	-14.51
844.141	-34.99
844.323	-14.51
844.506	-71.85
844.689	36.69
844.872	26.45
845.055	-143.53
845.238	87.89
845.42	-59.56
845.603	85.84
845.786	57.17
845.969	28.5
846.152	28.5
846.334	16.21
846.517	14.17
846.7	75.6
846.883	96.08
847.065	83.8
847.248	-2.22
847.431	-22.7
847.613	65.36
847.796	-8.36
847.979	53.08
848.161	42.84
848.344	32.6
848.526	18.26
848.709	20.31
848.892	-22.7
849.074	8.02
849.257	14.17
849.439	44.88
849.622	-39.08
849.804	61.27
849.987	8.02
850.169	91.99
850.352	26.45
850.534	-34.99
850.717	69.46
850.899	-16.55
851.082	77.65
851.264	-24.75
851.446	46.93
851.629	-41.13
851.811	38.74
851.994	-22.7
852.176	-18.6
852.358	-26.79
852.541	100.18
852.723	-18.6
852.905	-8.36
853.088	-88.23
853.27	-12.46
853.452	-10.41
853.635	-2.22
853.817	98.13
853.999	61.27
854.181	-53.42
854.363	20.31
854.546	96.08
854.728	139.09
854.91	-2.22
855.092	71.51
855.274	10.07
855.457	-20.65
855.639	30.55
855.821	-32.94
856.003	71.51
856.185	-32.94
856.367	-6.31
856.549	12.12
856.731	114.52
856.913	110.42
857.095	10.07
857.277	26.45
857.459	-67.75
857.641	-37.03
857.823	-69.8
858.005	-18.6
858.187	20.31
858.369	3.93
858.551	-69.8
858.733	61.27
858.915	42.84
859.097	5.97
859.279	-18.6
859.461	91.99
859.643	81.75
859.824	-73.9
860.006	-53.42
860.188	106.32
860.37	-16.55
860.552	-22.7
860.734	-80.04
860.915	-30.89
861.097	-90.28
861.279	42.84
861.461	26.45
861.642	30.55
861.824	-37.03
862.006	141.14
862.188	-32.94
862.369	98.13
862.551	14.17
862.733	-125.1
862.914	-16.55
863.096	18.26
863.278	-37.03
863.459	-14.51
863.641	-37.03
863.822	-41.13
864.004	8.02
864.185	91.99
864.367	141.14
864.549	-71.85
864.73	-24.75
864.912	20.31
865.093	12.12
865.275	18.26
865.456	1.88
865.638	18.26
865.819	128.85
866.001	18.26
866.182	3.93
866.363	91.99
866.545	-92.33
866.726	1.88
866.908	-32.94
867.089	38.74
867.27	-4.27
867.452	24.4
867.633	61.27
867.814	110.42
867.996	30.55
868.177	-0.17
868.358	94.04
868.54	-49.32
868.721	-53.42
868.902	169.81
869.083	-69.8
869.265	61.27
869.446	1.88
869.627	8.02
869.808	-67.75
869.989	61.27
870.171	-20.65
870.352	40.79
870.533	40.79
870.714	-30.89
870.895	59.22
871.076	-47.27
871.257	36.69
871.438	-18.6
871.619	61.27
871.801	120.66
871.982	14.17
872.163	44.88
872.344	-86.19
872.525	-80.04
872.706	38.74
872.887	79.7
873.068	81.75
873.249	128.85
873.43	46.93
873.61	-22.7
873.791	91.99
873.972	42.84
874.153	-24.75
874.334	28.5
874.515	-84.14
874.696	-47.27
874.877	10.07
875.058	24.4
875.238	40.79
875.419	10.07
875.6	3.93
875.781	-30.89
875.962	32.6
876.142	-51.37
876.323	30.55
876.504	-116.9
876.685	-57.51
876.865	96.08
877.046	18.26
877.227	14.17
877.407	14.17
877.588	-8.36
877.769	48.98
877.949	-55.47
878.13	-39.08
878.311	-63.66
878.491	1.88
878.672	61.27
878.853	-2.22
879.033	30.55
879.214	-8.36
879.394	-10.41
879.575	149.33
879.755	-28.84
879.936	-59.56
880.116	10.07
880.297	1.88
880.477	-112.81
880.658	-59.56
880.838	46.93
881.019	-82.09
881.199	-90.28
881.38	-37.03
881.56	-0.17
881.74	32.6
881.921	61.27
882.101	89.94
882.281	24.4
882.462	-92.33
882.642	24.4
882.822	-51.37
883.003	-14.51
883.183	22.36
883.363	26.45
883.544	91.99
883.724	-77.99
883.904	-28.84
884.084	67.41
884.265	18.26
884.445	30.55
884.625	42.84
884.805	81.75
884.985	8.02
885.166	53.08
885.346	30.55
885.526	87.89
885.706	69.46
885.886	100.18
886.066	-45.23
886.246	-26.79
886.426	8.02
886.606	57.17
886.787	3.93
886.967	108.37
887.147	77.65
887.327	22.36
887.507	8.02
887.687	42.84
887.867	53.08
888.047	67.41
888.227	3.93
888.406	28.5
888.586	-88.23
888.766	-8.36
888.946	-14.51
889.126	36.69
889.306	40.79
889.486	67.41
889.666	-112.81
889.846	71.51
890.025	1.88
890.205	34.64
890.385	-16.55
890.565	46.93
890.745	22.36
890.924	112.47
891.104	38.74
891.284	120.66
891.464	81.75
891.643	71.51
891.823	-20.65
892.003	87.89
892.183	81.75
892.362	12.12
892.542	18.26
892.722	20.31
892.901	-34.99
893.081	-41.13
893.26	-4.27
893.44	57.17
893.62	128.85
893.799	-49.32
893.979	85.84
894.158	-61.61
894.338	44.88
894.517	20.31
894.697	12.12
894.877	5.97
895.056	48.98
895.236	-34.99
895.415	-45.23
895.594	100.18
895.774	44.88
895.953	71.51
896.133	-24.75
896.312	34.64
896.492	63.32
896.671	8.02
896.85	-129.19
897.03	51.03
897.209	79.7
897.388	44.88
897.568	-8.36
897.747	128.85
897.926	-32.94
898.106	57.17
898.285	71.51
898.464	42.84
898.643	-112.81
898.823	28.5
899.002	-71.85
899.181	79.7
899.36	44.88
899.54	-0.17
899.719	-39.08
899.898	24.4
900.077	-45.23
900.256	53.08
900.435	22.36
900.614	-18.6
900.794	18.26
900.973	85.84
901.152	96.08
901.331	100.18
901.51	-129.19
901.689	106.32
901.868	116.56
902.047	106.32
902.226	40.79
902.405	-8.36
902.584	-37.03
902.763	26.45
902.942	77.65
903.121	106.32
903.3	75.6
903.479	-51.37
903.658	40.79
903.837	-34.99
904.015	-12.46
904.194	30.55
904.373	69.46
904.552	-34.99
904.731	-82.09
904.91	8.02
905.089	-22.7
905.267	96.08
905.446	-59.56
905.625	-4.27
905.804	36.69
905.982	-0.17
906.161	-39.08
906.34	-43.18
906.519	120.66
906.697	46.93
906.876	18.26
907.055	38.74
907.233	24.4
907.412	-10.41
907.591	-57.51
907.769	89.94
907.948	14.17
908.127	55.12
908.305	-32.94
908.484	122.71
908.662	34.64
908.841	116.56
909.019	59.22
909.198	-26.79
909.377	-2.22
909.555	-28.84
909.734	94.04
909.912	22.36
910.09	-20.65
910.269	28.5
910.447	91.99
910.626	1.88
910.804	-28.84
910.983	-94.38
911.161	-16.55
911.339	-8.36
911.518	48.98
911.696	-65.71
911.875	-30.89
912.053	132.95
912.231	-61.61
912.41	155.47
912.588	34.64
912.766	-110.76
912.944	-0.17
913.123	51.03
913.301	69.46
913.479	-2.22
913.657	-41.13
913.836	132.95
914.014	32.6
914.192	-16.55
914.37	1.88
914.548	-49.32
914.727	157.52
914.905	57.17
915.083	-16.55
915.261	120.66
915.439	24.4
915.617	-26.79
915.795	-39.08
915.973	-0.17
916.151	18.26
916.329	3.93
916.508	20.31
916.686	-96.43
916.864	-80.04
917.042	-0.17
917.22	65.36
917.398	46.93
917.575	-24.75
917.753	73.56
917.931	61.27
918.109	-110.76
918.287	96.08
918.465	-45.23
918.643	71.51
918.821	-45.23
918.999	14.17
919.177	22.36
919.354	32.6
919.532	8.02
919.71	5.97
919.888	55.12
920.066	-28.84
920.243	40.79
920.421	53.08
920.599	94.04
920.777	32.6
920.954	34.64
921.132	124.76
921.31	-24.75
921.488	24.4
921.665	20.31
921.843	-32.94
922.021	128.85
922.198	-18.6
922.376	32.6
922.553	87.89
922.731	57.17
922.909	-6.31
923.086	-30.89
923.264	28.5
923.441	128.85
923.619	10.07
923.796	-10.41
923.974	12.12
924.152	-55.47
924.329	69.46
924.507	-14.51
924.684	91.99
924.861	104.28
925.039	-6.31
925.216	40.79
925.394	38.74
925.571	38.74
925.749	94.04
925.926	53.08
926.103	3.93
926.281	24.4
926.458	46.93
926.635	40.79
926.813	-14.51
926.99	-75.95
927.167	22.36
927.345	-6.31
927.522	1.88
927.699	48.98
927.876	124.76
928.054	51.03
928.231	-55.47
928.408	-26.79
928.585	-80.04
928.763	10.07
928.94	104.28
929.117	75.6
929.294	20.31
929.471	38.74
929.648	-110.76
929.825	100.18
930.003	30.55
930.18	-34.99
930.357	-18.6
930.534	-24.75
930.711	63.32
930.888	34.64
931.065	-18.6
931.242	-34.99
931.419	12.12
931.596	26.45
931.773	-39.08
931.95	8.02
932.127	5.97
932.304	-39.08
932.481	1.88
932.658	-61.61
932.835	-16.55
933.011	-20.65
933.188	28.5
933.365	94.04
933.542	30.55
933.719	30.55
933.896	32.6
934.073	-84.14
934.249	85.84
934.426	55.12
934.603	-92.33
934.78	46.93
934.957	-80.04
935.133	102.23
935.31	32.6
935.487	-18.6
935.664	36.69
935.84	18.26
936.017	-34.99
936.194	63.32
936.37	-49.32
936.547	-57.51
936.724	73.56
936.9	81.75
937.077	79.7
937.253	36.69
937.43	-96.43
937.607	57.17
937.783	-121
937.96	91.99
938.136	106.32
938.313	128.85
938.489	-92.33
938.666	30.55
938.842	87.89
939.019	-4.27
939.195	-57.51
939.372	59.22
939.548	30.55
939.725	20.31
939.901	-80.04
940.077	-6.31
940.254	-24.75
940.43	36.69
940.607	-61.61
940.783	-18.6
940.959	-57.51
941.136	128.85
941.312	16.21
941.488	-24.75
941.665	-0.17
941.841	38.74
942.017	83.8
942.193	171.86
942.37	46.93
942.546	-8.36
942.722	85.84
942.898	-39.08
943.074	-22.7
943.251	100.18
943.427	-30.89
943.603	59.22
943.779	-28.84
943.955	30.55
944.131	26.45
944.308	36.69
944.484	48.98
944.66	63.32
944.836	-82.09
945.012	-71.85
945.188	-32.94
945.364	89.94
945.54	-57.51
945.716	-45.23
945.892	53.08
946.068	-14.51
946.244	14.17
946.42	96.08
946.596	5.97
946.772	89.94
946.948	-90.28
947.124	-53.42
947.3	48.98
947.475	124.76
947.651	28.5
947.827	34.64
948.003	-14.51
948.179	8.02
948.355	-112.81
948.531	-63.66
948.706	-6.31
948.882	12.12
949.058	-43.18
949.234	-8.36
949.409	-49.32
949.585	-16.55
949.761	-26.79
949.937	57.17
950.112	-55.47
950.288	36.69
950.464	61.27
950.639	102.23
950.815	-4.27
950.991	14.17
951.166	61.27
951.342	24.4
951.518	104.28
951.693	8.02
951.869	10.07
952.044	-20.65
952.22	-16.55
952.395	36.69
952.571	65.36
952.747	-6.31
952.922	-45.23
953.098	98.13
953.273	-8.36
953.448	-8.36
953.624	-4.27
953.799	94.04
953.975	-2.22
954.15	94.04
954.326	-2.22
954.501	65.36
954.676	38.74
954.852	-28.84
955.027	42.84
955.203	-125.1
955.378	100.18
955.553	89.94
955.729	28.5
955.904	-92.33
956.079	69.46
956.254	14.17
956.43	42.84
956.605	171.86
956.78	-121
956.955	85.84
957.131	12.12
957.306	46.93
957.481	18.26
957.656	28.5
957.831	-47.27
958.007	-14.51
958.182	24.4
958.357	51.03
958.532	22.36
958.707	10.07
958.882	3.93
959.057	-18.6
959.232	59.22
959.407	10.07
959.582	89.94
959.757	110.42
959.932	81.75
960.107	48.98
960.282	77.65
960.457	149.33
960.632	14.17
960.807	36.69
960.982	-63.66
961.157	8.02
961.332	-63.66
961.507	-106.67
961.682	-6.31
961.857	-22.7
962.032	-6.31
962.206	-53.42
962.381	-75.95
962.556	65.36
962.731	94.04
962.906	-8.36
963.081	-6.31
963.255	18.26
963.43	-4.27
963.605	28.5
963.78	3.93
963.954	-30.89
964.129	53.08
964.304	32.6
964.479	26.45
964.653	-45.23
964.828	-10.41
965.003	63.32
965.177	104.28
965.352	-94.38
965.526	-18.6
965.701	73.56
965.876	18.26
966.05	-112.81
966.225	22.36
966.399	-6.31
966.574	38.74
966.748	-0.17
966.923	-8.36
967.098	59.22
967.272	-16.55
967.446	24.4
967.621	44.88
967.795	42.84
967.97	-57.51
968.144	108.37
968.319	46.93
968.493	-12.46
968.668	-14.51
968.842	104.28
969.016	-6.31
969.191	67.41
969.365	-6.31
969.539	-39.08
969.714	20.31
969.888	-49.32
970.062	59.22
970.237	10.07
970.411	36.69
970.585	126.8
970.759	67.41
970.934	-4.27
971.108	36.69
971.282	-20.65
971.456	-0.17
971.63	-8.36
971.805	-159.91
971.979	16.21
972.153	-24.75
972.327	34.64
972.501	-34.99
972.675	10.07
972.849	-57.51
973.024	30.55
973.198	-82.09
973.372	-45.23
973.546	57.17
973.72	36.69
973.894	-57.51
974.068	44.88
974.242	-22.7
974.416	-14.51
974.59	22.36
974.764	-96.43
974.938	-24.75
975.112	-43.18
975.286	-10.41
975.46	32.6
975.633	-30.89
975.807	38.74
975.981	-4.27
976.155	-4.27
976.329	57.17
976.503	-0.17
976.677	-6.31
976.85	30.55
977.024	22.36
977.198	48.98
977.372	-22.7
977.546	34.64
977.719	-114.86
977.893	36.69
978.067	38.74
978.241	28.5
978.414	-45.23
978.588	-14.51
978.762	-12.46
978.935	-0.17
979.109	81.75
979.283	75.6
979.456	55.12
979.63	-49.32
979.804	59.22
979.977	46.93
980.151	-45.23
980.324	48.98
980.498	-37.03
980.671	36.69
980.845	-53.42
981.018	-12.46
981.192	28.5
981.365	75.6
981.539	26.45
981.712	14.17
981.886	24.4
982.059	-10.41
982.233	-12.46
982.406	-10.41
982.58	53.08
982.753	65.36
982.926	36.69
983.1	106.32
983.273	91.99
983.446	-28.84
983.62	71.51
983.793	59.22
983.966	30.55
984.14	-59.56
984.313	-37.03
984.486	18.26
984.66	-92.33
984.833	96.08
985.006	-67.75
985.179	-6.31
985.352	-47.27
985.526	-12.46
985.699	-22.7
985.872	48.98
986.045	32.6
986.218	34.64
986.391	-2.22
986.565	71.51
986.738	-98.47
986.911	-47.27
987.084	10.07
987.257	124.76
987.43	12.12
987.603	-47.27
987.776	-22.7
987.949	57.17
988.122	-14.51
988.295	-61.61
988.468	-41.13
988.641	63.32
988.814	10.07
988.987	12.12
989.16	-26.79
989.333	-24.75
989.506	42.84
989.679	-82.09
989.852	94.04
990.025	24.4
990.197	44.88
990.37	165.71
990.543	-37.03
990.716	-47.27
990.889	20.31
991.062	-71.85
991.234	42.84
991.407	-49.32
991.58	44.88
991.753	1.88
991.925	53.08
992.098	30.55
992.271	85.84
992.444	51.03
992.616	24.4
992.789	98.13
992.962	-34.99
993.134	34.64
993.307	-8.36
993.479	-32.94
993.652	-6.31
993.825	16.21
993.997	22.36
994.17	-45.23
994.342	42.84
994.515	24.4
994.688	10.07
994.86	38.74
995.033	-26.79
995.205	128.85
995.378	81.75
995.55	-6.31
995.723	-106.67
995.895	28.5
996.067	110.42
996.24	20.31
996.412	32.6
996.585	8.02
996.757	104.28
996.929	-10.41
997.102	-0.17
997.274	-73.9
997.447	108.37
997.619	3.93
997.791	104.28
997.964	-24.75
998.136	114.52
998.308	12.12
998.48	-65.71
998.653	42.84
998.825	-49.32
998.997	18.26
999.169	-57.51
999.342	26.45
999.514	-108.71
999.686	59.22
999.858	30.55
1000.03	83.8
1000.202	48.98
1000.374	34.64
1000.547	-47.27
1000.719	-67.75
1000.891	24.4
1001.063	34.64
1001.235	71.51
1001.407	-100.52
1001.579	-43.18
1001.751	38.74
1001.923	-100.52
1002.095	91.99
1002.267	8.02
1002.439	3.93
1002.611	48.98
1002.783	18.26
1002.955	-18.6
1003.127	8.02
1003.299	40.79
1003.471	-6.31
1003.643	44.88
1003.815	-45.23
1003.986	51.03
1004.158	130.9
1004.33	8.02
1004.502	30.55
1004.674	122.71
1004.846	-18.6
1005.017	-77.99
1005.189	34.64
1005.361	-30.89
1005.533	-16.55
1005.704	28.5
1005.876	73.56
1006.048	32.6
1006.22	12.12
1006.391	28.5
1006.563	12.12
1006.735	30.55
1006.906	-55.47
1007.078	-170.15
1007.25	-61.61
1007.421	-12.46
1007.593	69.46
1007.764	-69.8
1007.936	151.38
1008.108	-22.7
1008.279	53.08
1008.451	10.07
1008.622	22.36
1008.794	-39.08
1008.965	48.98
1009.137	40.79
1009.308	32.6
1009.48	3.93
1009.651	132.95
1009.823	-37.03
1009.994	65.36
1010.165	46.93
1010.337	-84.14
1010.508	12.12
1010.68	87.89
1010.851	8.02
1011.022	-71.85
1011.194	38.74
1011.365	-20.65
1011.536	-94.38
1011.708	-12.46
1011.879	130.9
1012.05	122.71
1012.222	77.65
1012.393	16.21
1012.564	24.4
1012.735	53.08
1012.906	1.88
1013.078	-26.79
1013.249	-28.84
1013.42	20.31
1013.591	-0.17
1013.762	110.42
1013.934	10.07
1014.105	-32.94
1014.276	91.99
1014.447	10.07
1014.618	124.76
1014.789	104.28
1014.96	157.52
1015.131	18.26
1015.302	-59.56
1015.473	24.4
1015.644	14.17
1015.815	-71.85
1015.986	-47.27
1016.157	57.17
1016.328	-4.27
1016.499	-53.42
1016.67	-55.47
1016.841	69.46
1017.012	-10.41
1017.183	-45.23
1017.354	46.93
1017.525	22.36
1017.696	12.12
1017.867	-96.43
1018.037	3.93
1018.208	83.8
1018.379	-41.13
1018.55	-61.61
1018.721	36.69
1018.891	24.4
1019.062	-24.75
1019.233	48.98
1019.404	63.32
1019.574	-59.56
1019.745	-100.52
1019.916	-30.89
1020.087	14.17
1020.257	-139.43
1020.428	-110.76
1020.599	114.52
1020.769	-104.62
1020.94	42.84
1021.11	59.22
1021.281	-8.36
1021.452	51.03
1021.622	-47.27
1021.793	104.28
1021.963	122.71
1022.134	-84.14
1022.305	30.55
1022.475	100.18
1022.646	182.1
1022.816	24.4
1022.987	-4.27
1023.157	69.46
1023.327	53.08
1023.498	-6.31
1023.668	-14.51
1023.839	-55.47
1024.009	-34.99
1024.18	55.12
1024.35	40.79
1024.52	-8.36
1024.691	83.8
1024.861	34.64
1025.031	-0.17
1025.202	-69.8
1025.372	89.94
1025.542	-65.71
1025.713	73.56
1025.883	126.8
1026.053	77.65
1026.223	65.36
1026.394	5.97
1026.564	61.27
1026.734	12.12
1026.904	-26.79
1027.074	5.97
1027.245	16.21
1027.415	32.6
1027.585	67.41
1027.755	-32.94
1027.925	-94.38
1028.095	38.74
1028.265	36.69
1028.435	1.88
1028.606	34.64
1028.776	-26.79
1028.946	42.84
1029.116	38.74
1029.286	81.75
1029.456	-30.89
1029.626	-59.56
1029.796	-22.7
1029.966	67.41
1030.136	14.17
1030.306	-75.95
1030.475	83.8
1030.645	-26.79
1030.815	1.88
1030.985	-4.27
1031.155	36.69
1031.325	65.36
1031.495	-20.65
1031.665	-18.6
1031.835	5.97
1032.004	-6.31
1032.174	-73.9
1032.344	8.02
1032.514	-37.03
1032.684	-47.27
1032.853	20.31
1033.023	-30.89
1033.193	3.93
1033.362	-92.33
1033.532	40.79
1033.702	-12.46
1033.872	128.85
1034.041	32.6
1034.211	59.22
1034.381	-20.65
1034.55	-47.27
1034.72	-84.14
1034.889	65.36
1035.059	-16.55
1035.229	-24.75
1035.398	-63.66
1035.568	71.51
1035.737	-71.85
1035.907	-2.22
1036.076	-4.27
1036.246	-45.23
1036.415	8.02
1036.585	32.6
1036.754	57.17
1036.924	-22.7
1037.093	-28.84
1037.263	10.07
1037.432	190.29
1037.601	22.36
1037.771	-47.27
1037.94	65.36
1038.11	-106.67
1038.279	-61.61
1038.448	-47.27
1038.618	-6.31
1038.787	26.45
1038.956	-114.86
1039.126	34.64
1039.295	-34.99
1039.464	71.51
1039.633	-14.51
1039.803	-71.85
1039.972	83.8
1040.141	1.88
1040.31	14.17
1040.479	73.56
1040.649	65.36
1040.818	-32.94
1040.987	-118.95
1041.156	71.51
1041.325	-20.65
1041.494	79.7
1041.663	71.51
1041.833	67.41
1042.002	-4.27
1042.171	-34.99
1042.34	-65.71
1042.509	42.84
1042.678	-6.31
