Data from LSP52_S2_Subt2_15-23-13-236.txt Node
Date: Wed Aug 09 15:23:13 EDT 2023
User: Emmanuel
Spectrometer: USB4A00615
Scans to average: 1
Trigger mode: 1
Integration Time (sec): 4.000000E-3
Electric dark correction enabled: true
Boxcar width: 0
XAxis mode: Wavelengths
Number of Pixels in Spectrum: 3648
>>>>>Begin Spectral Data<<<<<
346.606	-68.95
346.818	-68.95
347.029	-68.95
347.241	156.33
347.452	133.8
347.664	-23.89
347.876	4.78
348.087	-13.65
348.299	-13.65
348.51	35.5
348.722	6.83
348.933	-48.47
349.145	12.97
349.356	68.27
349.568	-64.85
349.779	66.22
349.991	-30.04
350.202	-103.76
350.414	84.65
350.625	-5.46
350.836	-5.46
351.048	62.12
351.259	-5.46
351.471	-11.61
351.682	92.84
351.893	41.64
352.105	76.46
352.316	-3.41
352.527	53.93
352.739	-93.52
352.95	-21.85
353.161	-27.99
353.372	41.64
353.584	-34.13
353.795	62.12
354.006	62.12
354.217	25.26
354.429	-17.75
354.64	-15.7
354.851	12.97
355.062	-101.72
355.274	-42.32
355.485	23.21
355.696	29.35
355.907	10.92
356.118	-48.47
356.329	90.79
356.54	23.21
356.752	-27.99
356.963	86.7
357.174	94.89
357.385	8.87
357.596	19.11
357.807	-54.61
358.018	17.07
358.229	51.88
358.44	-17.75
358.651	86.7
358.862	-3.41
359.073	35.5
359.284	51.88
359.495	-42.32
359.706	-44.37
359.917	80.55
360.128	-9.56
360.339	29.35
360.55	-13.65
360.761	17.07
360.972	49.83
361.182	-109.91
361.393	43.69
361.604	39.59
361.815	-3.41
362.026	29.35
362.237	2.73
362.447	-66.9
362.658	88.75
362.869	-3.41
363.08	29.35
363.291	-36.18
363.501	109.22
363.712	103.08
363.923	4.78
364.134	-34.13
364.344	-54.61
364.555	17.07
364.766	-19.8
364.976	45.74
365.187	-58.71
365.398	-13.65
365.608	-64.85
365.819	-85.33
366.03	-7.51
366.24	82.6
366.451	-101.72
366.662	70.31
366.872	-50.52
367.083	68.27
367.293	25.26
367.504	137.9
367.714	4.78
367.925	78.51
368.135	-50.52
368.346	12.97
368.557	-32.08
368.767	86.7
368.977	66.22
369.188	-9.56
369.398	66.22
369.609	35.5
369.819	80.55
370.03	66.22
370.24	64.17
370.451	37.55
370.661	49.83
370.871	101.03
371.082	-19.8
371.292	21.16
371.502	35.5
371.713	-7.51
371.923	-114
372.133	43.69
372.344	80.55
372.554	45.74
372.764	70.31
372.975	31.4
373.185	51.88
373.395	23.21
373.605	45.74
373.816	-19.8
374.026	205.48
374.236	-1.37
374.446	-11.61
374.656	-83.28
374.867	35.5
375.077	8.87
375.287	45.74
375.497	29.35
375.707	86.7
375.917	-77.14
376.127	37.55
376.338	21.16
376.548	-34.13
376.758	15.02
376.968	117.42
377.178	-7.51
377.388	74.41
377.598	-1.37
377.808	-128.34
378.018	121.51
378.228	49.83
378.438	43.69
378.648	-40.28
378.858	107.18
379.068	-15.7
379.278	35.5
379.488	-38.23
379.698	2.73
379.908	6.83
380.118	70.31
380.327	60.07
380.537	-124.24
380.747	-64.85
380.957	70.31
381.167	35.5
381.377	25.26
381.587	53.93
381.796	90.79
382.006	-62.8
382.216	-34.13
382.426	27.31
382.636	27.31
382.845	0.68
383.055	-25.94
383.265	49.83
383.475	68.27
383.684	21.16
383.894	49.83
384.104	-11.61
384.313	4.78
384.523	78.51
384.733	29.35
384.942	35.5
385.152	-36.18
385.362	-27.99
385.571	-13.65
385.781	-34.13
385.991	-5.46
386.2	84.65
386.41	-50.52
386.619	33.45
386.829	127.66
387.038	-116.05
387.248	6.83
387.457	92.84
387.667	12.97
387.876	62.12
388.086	19.11
388.295	68.27
388.505	105.13
388.714	88.75
388.924	-42.32
389.133	58.03
389.343	-60.76
389.552	-52.56
389.762	-52.56
389.971	19.11
390.18	35.5
390.39	70.31
390.599	101.03
390.808	-32.08
391.018	19.11
391.227	41.64
391.436	-19.8
391.646	168.62
391.855	101.03
392.064	-38.23
392.274	133.8
392.483	43.69
392.692	19.11
392.901	-58.71
393.111	33.45
393.32	29.35
393.529	98.99
393.738	86.7
393.947	29.35
394.157	172.71
394.366	131.75
394.575	68.27
394.784	41.64
394.993	-21.85
395.202	43.69
395.411	-3.41
395.62	101.03
395.83	68.27
396.039	-81.24
396.248	6.83
396.457	-36.18
396.666	-27.99
396.875	-25.94
397.084	8.87
397.293	29.35
397.502	29.35
397.711	-38.23
397.92	-5.46
398.129	31.4
398.338	37.55
398.547	31.4
398.756	21.16
398.965	144.04
399.174	39.59
399.382	152.23
399.591	-19.8
399.8	0.68
400.009	-9.56
400.218	66.22
400.427	21.16
400.636	72.36
400.844	-71
401.053	21.16
401.262	-52.56
401.471	41.64
401.68	8.87
401.888	76.46
402.097	51.88
402.306	-89.43
402.515	-30.04
402.723	72.36
402.932	45.74
403.141	27.31
403.35	72.36
403.558	-68.95
403.767	117.42
403.976	-93.52
404.184	33.45
404.393	17.07
404.602	-77.14
404.81	45.74
405.019	-109.91
405.227	33.45
405.436	6.83
405.645	111.27
405.853	-85.33
406.062	-64.85
406.27	76.46
406.479	-17.75
406.687	-50.52
406.896	-103.76
407.104	139.94
407.313	-40.28
407.521	66.22
407.73	0.68
407.938	133.8
408.147	6.83
408.355	-17.75
408.563	49.83
408.772	-40.28
408.98	123.56
409.189	-11.61
409.397	31.4
409.605	-44.37
409.814	47.79
410.022	33.45
410.23	64.17
410.439	17.07
410.647	74.41
410.855	-32.08
411.064	58.03
411.272	15.02
411.48	43.69
411.688	-3.41
411.897	17.07
412.105	-25.94
412.313	21.16
412.521	-64.85
412.73	47.79
412.938	55.98
413.146	-87.38
413.354	66.22
413.562	-38.23
413.77	80.55
413.979	92.84
414.187	31.4
414.395	-25.94
414.603	25.26
414.811	-56.66
415.019	74.41
415.227	6.83
415.435	10.92
415.643	43.69
415.851	-19.8
416.059	29.35
416.267	27.31
416.475	92.84
416.683	12.97
416.891	23.21
417.099	74.41
417.307	0.68
417.515	35.5
417.723	49.83
417.931	121.51
418.139	219.82
418.347	-19.8
418.555	17.07
418.763	121.51
418.971	113.32
419.179	-89.43
419.386	-13.65
419.594	72.36
419.802	17.07
420.01	-7.51
420.218	58.03
420.426	74.41
420.633	45.74
420.841	98.99
421.049	-38.23
421.257	39.59
421.464	82.6
421.672	53.93
421.88	2.73
422.088	49.83
422.295	35.5
422.503	35.5
422.711	82.6
422.918	8.87
423.126	53.93
423.334	-50.52
423.541	64.17
423.749	-68.95
423.956	-50.52
424.164	-40.28
424.372	68.27
424.579	-48.47
424.787	53.93
424.994	84.65
425.202	17.07
425.409	-34.13
425.617	105.13
425.824	-87.38
426.032	8.87
426.239	-44.37
426.447	86.7
426.654	-5.46
426.862	-42.32
427.069	25.26
427.277	60.07
427.484	111.27
427.692	39.59
427.899	-27.99
428.106	39.59
428.314	98.99
428.521	80.55
428.728	103.08
428.936	156.33
429.143	88.75
429.351	84.65
429.558	10.92
429.765	2.73
429.972	0.68
430.18	-114
430.387	41.64
430.594	-56.66
430.801	-23.89
431.009	12.97
431.216	-71
431.423	107.18
431.63	-19.8
431.838	29.35
432.045	-13.65
432.252	47.79
432.459	117.42
432.666	29.35
432.873	31.4
433.081	31.4
433.288	-23.89
433.495	-136.53
433.702	72.36
433.909	-52.56
434.116	64.17
434.323	-21.85
434.53	19.11
434.737	60.07
434.944	39.59
435.151	33.45
435.358	-17.75
435.565	4.78
435.772	-42.32
435.979	92.84
436.186	94.89
436.393	10.92
436.6	125.61
436.807	96.94
437.014	68.27
437.221	-11.61
437.428	70.31
437.635	111.27
437.841	43.69
438.048	131.75
438.255	4.78
438.462	43.69
438.669	-11.61
438.876	12.97
439.082	2.73
439.289	-54.61
439.496	-60.76
439.703	-17.75
439.91	-103.76
440.116	72.36
440.323	-54.61
440.53	-25.94
440.737	12.97
440.943	49.83
441.15	111.27
441.357	-85.33
441.563	60.07
441.77	45.74
441.977	62.12
442.183	23.21
442.39	0.68
442.597	-15.7
442.803	78.51
443.01	39.59
443.216	-21.85
443.423	146.09
443.63	-68.95
443.836	119.46
444.043	-23.89
444.249	25.26
444.456	62.12
444.662	17.07
444.869	31.4
445.075	0.68
445.282	35.5
445.488	74.41
445.695	-71
445.901	-13.65
446.107	58.03
446.314	0.68
446.52	39.59
446.727	31.4
446.933	-68.95
447.139	105.13
447.346	47.79
447.552	25.26
447.759	12.97
447.965	35.5
448.171	-7.51
448.378	33.45
448.584	88.75
448.79	170.66
448.996	31.4
449.203	131.75
449.409	-25.94
449.615	88.75
449.821	47.79
450.028	-27.99
450.234	84.65
450.44	-19.8
450.646	25.26
450.852	-60.76
451.059	-11.61
451.265	6.83
451.471	8.87
451.677	29.35
451.883	166.57
452.089	-17.75
452.295	33.45
452.502	-52.56
452.708	6.83
452.914	47.79
453.12	58.03
453.326	-50.52
453.532	90.79
453.738	-30.04
453.944	-5.46
454.15	29.35
454.356	86.7
454.562	53.93
454.768	35.5
454.974	-9.56
455.18	72.36
455.386	-7.51
455.592	51.88
455.798	150.18
456.003	21.16
456.209	60.07
456.415	58.03
456.621	8.87
456.827	51.88
457.033	84.65
457.239	-46.42
457.444	62.12
457.65	92.84
457.856	-21.85
458.062	33.45
458.268	4.78
458.473	-23.89
458.679	-19.8
458.885	84.65
459.091	58.03
459.296	131.75
459.502	2.73
459.708	-3.41
459.914	8.87
460.119	45.74
460.325	-124.24
460.531	2.73
460.736	8.87
460.942	23.21
461.147	-15.7
461.353	27.31
461.559	76.46
461.764	-17.75
461.97	-40.28
462.175	-52.56
462.381	139.94
462.587	-77.14
462.792	-185.68
462.998	25.26
463.203	33.45
463.409	-44.37
463.614	111.27
463.82	19.11
464.025	78.51
464.231	-11.61
464.436	45.74
464.641	17.07
464.847	84.65
465.052	35.5
465.258	2.73
465.463	-21.85
465.669	27.31
465.874	25.26
466.079	25.26
466.285	109.22
466.49	105.13
466.695	94.89
466.901	6.83
467.106	-19.8
467.311	-25.94
467.516	-58.71
467.722	0.68
467.927	-48.47
468.132	-9.56
468.338	-9.56
468.543	2.73
468.748	58.03
468.953	-36.18
469.158	58.03
469.364	29.35
469.569	-7.51
469.774	35.5
469.979	21.16
470.184	60.07
470.389	55.98
470.594	-17.75
470.8	41.64
471.005	103.08
471.21	-36.18
471.415	-21.85
471.62	-21.85
471.825	-32.08
472.03	-25.94
472.235	4.78
472.44	113.32
472.645	-7.51
472.85	66.22
473.055	-71
473.26	70.31
473.465	-3.41
473.67	109.22
473.875	23.21
474.08	-9.56
474.285	94.89
474.49	-7.51
474.695	33.45
474.899	6.83
475.104	-58.71
475.309	101.03
475.514	72.36
475.719	-9.56
475.924	58.03
476.128	-42.32
476.333	19.11
476.538	53.93
476.743	154.28
476.948	47.79
477.152	96.94
477.357	-44.37
477.562	111.27
477.767	53.93
477.971	58.03
478.176	35.5
478.381	-23.89
478.585	88.75
478.79	-42.32
478.995	98.99
479.199	15.02
479.404	2.73
479.609	-30.04
479.813	115.37
480.018	39.59
480.223	98.99
480.427	119.46
480.632	86.7
480.836	-1.37
481.041	80.55
481.245	146.09
481.45	51.88
481.654	60.07
481.859	-44.37
482.063	96.94
482.268	158.38
482.472	-48.47
482.677	148.14
482.881	96.94
483.086	-46.42
483.29	74.41
483.495	107.18
483.699	94.89
483.903	84.65
484.108	139.94
484.312	160.42
484.517	58.03
484.721	146.09
484.925	51.88
485.13	-56.66
485.334	-9.56
485.538	-54.61
485.743	84.65
485.947	-5.46
486.151	133.8
486.355	-11.61
486.56	23.21
486.764	23.21
486.968	31.4
487.172	-68.95
487.377	21.16
487.581	62.12
487.785	94.89
487.989	82.6
488.193	39.59
488.397	88.75
488.602	137.9
488.806	92.84
489.01	53.93
489.214	176.81
489.418	174.76
489.622	39.59
489.826	90.79
490.03	45.74
490.234	21.16
490.438	17.07
490.642	39.59
490.846	94.89
491.05	19.11
491.254	-173.39
491.458	60.07
491.662	-3.41
491.866	174.76
492.07	-17.75
492.274	-9.56
492.478	41.64
492.682	201.38
492.886	-15.7
493.09	70.31
493.294	119.46
493.498	6.83
493.701	90.79
493.905	53.93
494.109	96.94
494.313	55.98
494.517	64.17
494.721	139.94
494.924	31.4
495.128	113.32
495.332	0.68
495.536	60.07
495.739	-19.8
495.943	86.7
496.147	115.37
496.351	107.18
496.554	105.13
496.758	29.35
496.962	84.65
497.165	10.92
497.369	-11.61
497.573	131.75
497.776	180.9
497.98	-5.46
498.184	8.87
498.387	37.55
498.591	92.84
498.794	164.52
498.998	-9.56
499.202	135.85
499.405	92.84
499.609	156.33
499.812	19.11
500.016	-34.13
500.219	109.22
500.423	31.4
500.626	-21.85
500.83	131.75
501.033	-11.61
501.237	-46.42
501.44	55.98
501.643	19.11
501.847	25.26
502.05	-3.41
502.254	-50.52
502.457	168.62
502.66	47.79
502.864	107.18
503.067	51.88
503.271	76.46
503.474	47.79
503.677	49.83
503.88	90.79
504.084	37.55
504.287	-52.56
504.49	98.99
504.694	-40.28
504.897	31.4
505.1	80.55
505.303	98.99
505.507	10.92
505.71	-52.56
505.913	125.61
506.116	150.18
506.319	156.33
506.522	178.86
506.726	135.85
506.929	43.69
507.132	-19.8
507.335	53.93
507.538	-32.08
507.741	19.11
507.944	-107.86
508.147	-40.28
508.35	17.07
508.553	84.65
508.756	-25.94
508.959	35.5
509.163	84.65
509.366	144.04
509.569	119.46
509.771	-73.04
509.974	41.64
510.177	-7.51
510.38	41.64
510.583	98.99
510.786	2.73
510.989	62.12
511.192	144.04
511.395	-34.13
511.598	31.4
511.801	103.08
512.004	-36.18
512.206	-116.05
512.409	17.07
512.612	-36.18
512.815	25.26
513.018	21.16
513.22	10.92
513.423	105.13
513.626	60.07
513.829	-105.81
514.032	-32.08
514.234	117.42
514.437	-25.94
514.64	47.79
514.842	-21.85
515.045	144.04
515.248	29.35
515.45	98.99
515.653	6.83
515.856	35.5
516.058	-1.37
516.261	43.69
516.464	-11.61
516.666	92.84
516.869	201.38
517.071	82.6
517.274	131.75
517.477	-13.65
517.679	53.93
517.882	64.17
518.084	123.56
518.287	23.21
518.489	109.22
518.692	41.64
518.894	90.79
519.097	182.95
519.299	58.03
519.501	68.27
519.704	35.5
519.906	94.89
520.109	144.04
520.311	60.07
520.514	113.32
520.716	51.88
520.918	-15.7
521.121	53.93
521.323	35.5
521.525	80.55
521.728	37.55
521.93	-66.9
522.132	88.75
522.335	25.26
522.537	111.27
522.739	144.04
522.941	70.31
523.144	-30.04
523.346	-27.99
523.548	119.46
523.75	78.51
523.952	123.56
524.155	127.66
524.357	31.4
524.559	-50.52
524.761	-44.37
524.963	19.11
525.165	19.11
525.368	-21.85
525.57	43.69
525.772	8.87
525.974	-66.9
526.176	33.45
526.378	27.31
526.58	66.22
526.782	78.51
526.984	29.35
527.186	96.94
527.388	33.45
527.59	29.35
527.792	66.22
527.994	68.27
528.196	105.13
528.398	35.5
528.6	31.4
528.802	90.79
529.004	0.68
529.206	98.99
529.408	105.13
529.609	45.74
529.811	127.66
530.013	96.94
530.215	105.13
530.417	47.79
530.619	101.03
530.821	162.47
531.022	154.28
531.224	47.79
531.426	195.24
531.628	10.92
531.829	0.68
532.031	119.46
532.233	-27.99
532.435	31.4
532.636	160.42
532.838	121.51
533.04	-1.37
533.241	-13.65
533.443	60.07
533.645	82.6
533.846	-9.56
534.048	-1.37
534.25	103.08
534.451	17.07
534.653	-46.42
534.855	58.03
535.056	98.99
535.258	23.21
535.459	92.84
535.661	25.26
535.862	33.45
536.064	62.12
536.265	27.31
536.467	68.27
536.668	2.73
536.87	74.41
537.071	27.31
537.273	37.55
537.474	62.12
537.676	39.59
537.877	12.97
538.078	-30.04
538.28	-48.47
538.481	-68.95
538.683	78.51
538.884	8.87
539.085	2.73
539.287	-3.41
539.488	60.07
539.689	90.79
539.891	68.27
540.092	-5.46
540.293	15.02
540.495	4.78
540.696	-3.41
540.897	27.31
541.098	19.11
541.3	101.03
541.501	-75.09
541.702	129.7
541.903	-66.9
542.104	129.7
542.306	-56.66
542.507	60.07
542.708	43.69
542.909	-64.85
543.11	4.78
543.311	-5.46
543.512	41.64
543.713	-56.66
543.915	12.97
544.116	39.59
544.317	15.02
544.518	123.56
544.719	-32.08
544.92	68.27
545.121	-60.76
545.322	-27.99
545.523	-15.7
545.724	94.89
545.925	-13.65
546.126	60.07
546.327	66.22
546.528	6.83
546.729	43.69
546.929	-60.76
547.13	21.16
547.331	74.41
547.532	-19.8
547.733	127.66
547.934	55.98
548.135	92.84
548.336	139.94
548.536	66.22
548.737	31.4
548.938	4.78
549.139	78.51
549.34	33.45
549.54	60.07
549.741	21.16
549.942	-7.51
550.143	-333.14
550.343	82.6
550.544	103.08
550.745	25.26
550.945	31.4
551.146	-11.61
551.347	-1.37
551.547	53.93
551.748	43.69
551.949	-89.43
552.149	109.22
552.35	-75.09
552.551	144.04
552.751	-56.66
552.952	-7.51
553.152	33.45
553.353	-95.57
553.553	-15.7
553.754	82.6
553.954	12.97
554.155	53.93
554.356	31.4
554.556	47.79
554.756	-5.46
554.957	25.26
555.157	103.08
555.358	98.99
555.558	-1.37
555.759	41.64
555.959	37.55
556.159	21.16
556.36	109.22
556.56	131.75
556.761	4.78
556.961	82.6
557.161	-50.52
557.362	117.42
557.562	58.03
557.762	-32.08
557.963	62.12
558.163	68.27
558.363	47.79
558.563	101.03
558.764	47.79
558.964	113.32
559.164	8.87
559.364	150.18
559.565	35.5
559.765	25.26
559.965	47.79
560.165	31.4
560.365	8.87
560.565	-42.32
560.766	90.79
560.966	135.85
561.166	-128.34
561.366	94.89
561.566	-3.41
561.766	15.02
561.966	66.22
562.166	168.62
562.366	33.45
562.566	74.41
562.766	60.07
562.966	-44.37
563.166	8.87
563.366	74.41
563.566	-5.46
563.766	115.37
563.966	-3.41
564.166	96.94
564.366	90.79
564.566	176.81
564.766	53.93
564.966	33.45
565.166	111.27
565.366	-87.38
565.565	47.79
565.765	8.87
565.965	8.87
566.165	76.46
566.365	111.27
566.565	37.55
566.764	62.12
566.964	2.73
567.164	-19.8
567.364	-21.85
567.564	123.56
567.763	53.93
567.963	-21.85
568.163	80.55
568.362	117.42
568.562	31.4
568.762	45.74
568.961	-9.56
569.161	86.7
569.361	27.31
569.56	-23.89
569.76	-25.94
569.96	78.51
570.159	-52.56
570.359	-62.8
570.558	19.11
570.758	123.56
570.958	15.02
571.157	64.17
571.357	62.12
571.556	-1.37
571.756	47.79
571.955	47.79
572.155	-23.89
572.354	60.07
572.554	4.78
572.753	-30.04
572.953	51.88
573.152	109.22
573.351	-79.19
573.551	92.84
573.75	55.98
573.95	25.26
574.149	-13.65
574.348	62.12
574.548	53.93
574.747	29.35
574.946	-21.85
575.146	-7.51
575.345	-9.56
575.544	-109.91
575.744	29.35
575.943	-36.18
576.142	164.52
576.342	4.78
576.541	74.41
576.74	-36.18
576.939	88.75
577.138	33.45
577.338	113.32
577.537	-146.77
577.736	-34.13
577.935	12.97
578.134	10.92
578.333	76.46
578.533	-15.7
578.732	4.78
578.931	-17.75
579.13	55.98
579.329	51.88
579.528	-42.32
579.727	41.64
579.926	-64.85
580.125	96.94
580.324	43.69
580.523	66.22
580.722	-5.46
580.921	-36.18
581.12	29.35
581.319	78.51
581.518	117.42
581.717	80.55
581.916	-64.85
582.115	-32.08
582.314	17.07
582.513	12.97
582.712	37.55
582.911	86.7
583.109	-89.43
583.308	35.5
583.507	29.35
583.706	76.46
583.905	-27.99
584.104	58.03
584.302	-85.33
584.501	35.5
584.7	-116.05
584.899	-5.46
585.098	-15.7
585.296	80.55
585.495	-13.65
585.694	37.55
585.892	82.6
586.091	-21.85
586.29	53.93
586.488	-44.37
586.687	90.79
586.886	43.69
587.084	45.74
587.283	-3.41
587.482	39.59
587.68	82.6
587.879	49.83
588.077	-23.89
588.276	31.4
588.475	-30.04
588.673	2.73
588.872	-27.99
589.07	29.35
589.269	109.22
589.467	84.65
589.666	-23.89
589.864	51.88
590.063	-9.56
590.261	-19.8
590.46	70.31
590.658	-30.04
590.857	35.5
591.055	21.16
591.253	8.87
591.452	-52.56
591.65	31.4
591.848	90.79
592.047	33.45
592.245	23.21
592.444	111.27
592.642	-101.72
592.84	-13.65
593.038	-1.37
593.237	-13.65
593.435	72.36
593.633	121.51
593.832	-17.75
594.03	-3.41
594.228	-23.89
594.426	-11.61
594.624	-13.65
594.823	-34.13
595.021	88.75
595.219	-32.08
595.417	6.83
595.615	6.83
595.813	92.84
596.012	39.59
596.21	166.57
596.408	-19.8
596.606	41.64
596.804	31.4
597.002	-58.71
597.2	68.27
597.398	49.83
597.596	-1.37
597.794	35.5
597.992	-3.41
598.19	-7.51
598.388	72.36
598.586	17.07
598.784	-13.65
598.982	35.5
599.18	133.8
599.378	58.03
599.576	101.03
599.774	8.87
599.972	64.17
600.17	70.31
600.368	-32.08
600.565	8.87
600.763	19.11
600.961	98.99
601.159	29.35
601.357	-32.08
601.555	76.46
601.752	62.12
601.95	-15.7
602.148	-48.47
602.346	-73.04
602.544	150.18
602.741	-105.81
602.939	-52.56
603.137	-62.8
603.334	-54.61
603.532	49.83
603.73	-62.8
603.927	117.42
604.125	23.21
604.323	-169.3
604.52	51.88
604.718	-38.23
604.916	33.45
605.113	-109.91
605.311	64.17
605.508	19.11
605.706	21.16
605.904	35.5
606.101	-75.09
606.299	23.21
606.496	80.55
606.694	-21.85
606.891	-60.76
607.089	-68.95
607.286	-36.18
607.484	-38.23
607.681	2.73
607.879	113.32
608.076	-60.76
608.273	27.31
608.471	98.99
608.668	-81.24
608.866	-30.04
609.063	-132.44
609.26	-105.81
609.458	-99.67
609.655	60.07
609.852	-77.14
610.05	43.69
610.247	60.07
610.444	90.79
610.642	70.31
610.839	-9.56
611.036	-7.51
611.233	-3.41
611.431	-13.65
611.628	43.69
611.825	-103.76
612.022	27.31
612.22	98.99
612.417	-73.04
612.614	17.07
612.811	70.31
613.008	101.03
613.205	-3.41
613.402	-9.56
613.6	-23.89
613.797	10.92
613.994	19.11
614.191	15.02
614.388	60.07
614.585	15.02
614.782	103.08
614.979	170.66
615.176	-66.9
615.373	0.68
615.57	72.36
615.767	88.75
615.964	66.22
616.161	-9.56
616.358	-64.85
616.555	-30.04
616.752	21.16
616.949	139.94
617.146	49.83
617.343	53.93
617.539	-36.18
617.736	35.5
617.933	-19.8
618.13	8.87
618.327	29.35
618.524	-79.19
618.721	-116.05
618.917	21.16
619.114	8.87
619.311	101.03
619.508	-60.76
619.704	92.84
619.901	-21.85
620.098	-25.94
620.295	-7.51
620.491	-38.23
620.688	8.87
620.885	2.73
621.081	-58.71
621.278	-17.75
621.475	-9.56
621.671	-38.23
621.868	-46.42
622.065	-62.8
622.261	33.45
622.458	29.35
622.655	98.99
622.851	-91.48
623.048	-48.47
623.244	-13.65
623.441	6.83
623.637	76.46
623.834	-42.32
624.03	-114
624.227	51.88
624.423	-11.61
624.62	17.07
624.816	45.74
625.013	105.13
625.209	-50.52
625.406	-58.71
625.602	-157.01
625.798	86.7
625.995	-7.51
626.191	-25.94
626.388	6.83
626.584	25.26
626.78	-56.66
626.977	-71
627.173	-19.8
627.369	27.31
627.566	41.64
627.762	-30.04
627.958	25.26
628.154	-56.66
628.351	-46.42
628.547	43.69
628.743	19.11
628.939	37.55
629.136	-79.19
629.332	55.98
629.528	4.78
629.724	35.5
629.92	62.12
630.116	92.84
630.313	-44.37
630.509	-91.48
630.705	164.52
630.901	45.74
631.097	-36.18
631.293	-99.67
631.489	8.87
631.685	-77.14
631.881	15.02
632.077	12.97
632.273	-50.52
632.469	6.83
632.665	58.03
632.861	8.87
633.057	-36.18
633.253	-21.85
633.449	-25.94
633.645	-44.37
633.841	182.95
634.037	-58.71
634.233	21.16
634.429	23.21
634.625	62.12
634.821	115.37
635.017	10.92
635.212	-68.95
635.408	-40.28
635.604	-54.61
635.8	-77.14
635.996	-21.85
636.191	10.92
636.387	0.68
636.583	-36.18
636.779	-1.37
636.975	21.16
637.17	-34.13
637.366	119.46
637.562	82.6
637.757	-15.7
637.953	-9.56
638.149	-30.04
638.345	-25.94
638.54	-30.04
638.736	-87.38
638.931	-34.13
639.127	113.32
639.323	62.12
639.518	82.6
639.714	-21.85
639.909	-62.8
640.105	10.92
640.301	-11.61
640.496	121.51
640.692	39.59
640.887	66.22
641.083	-50.52
641.278	133.8
641.474	-13.65
641.669	-46.42
641.865	12.97
642.06	43.69
642.256	-77.14
642.451	-17.75
642.646	-34.13
642.842	53.93
643.037	60.07
643.233	12.97
643.428	123.56
643.623	-5.46
643.819	-48.47
644.014	-42.32
644.209	-38.23
644.405	4.78
644.6	74.41
644.795	92.84
644.99	-75.09
645.186	70.31
645.381	-52.56
645.576	-99.67
645.771	-3.41
645.967	-21.85
646.162	10.92
646.357	84.65
646.552	47.79
646.747	47.79
646.943	12.97
647.138	-42.32
647.333	51.88
647.528	-249.17
647.723	74.41
647.918	8.87
648.113	35.5
648.308	86.7
648.504	-27.99
648.699	-17.75
648.894	19.11
649.089	55.98
649.284	-116.05
649.479	-54.61
649.674	-17.75
649.869	96.94
650.064	-103.76
650.259	29.35
650.454	-42.32
650.649	27.31
650.844	-44.37
651.038	72.36
651.233	-1.37
651.428	47.79
651.623	8.87
651.818	-36.18
652.013	37.55
652.208	-17.75
652.403	45.74
652.597	-38.23
652.792	-89.43
652.987	244.39
653.182	51.88
653.377	31.4
653.571	25.26
653.766	-95.57
653.961	-36.18
654.156	37.55
654.35	-42.32
654.545	-32.08
654.74	70.31
654.935	-3.41
655.129	98.99
655.324	64.17
655.519	-85.33
655.713	76.46
655.908	-34.13
656.102	66.22
656.297	-1.37
656.492	189.1
656.686	-34.13
656.881	-62.8
657.075	-54.61
657.27	-7.51
657.464	-17.75
657.659	64.17
657.854	-124.24
658.048	-15.7
658.243	51.88
658.437	-17.75
658.631	-148.82
658.826	148.14
659.02	-32.08
659.215	68.27
659.409	45.74
659.604	-34.13
659.798	-34.13
659.992	-7.51
660.187	-68.95
660.381	41.64
660.576	-111.96
660.77	21.16
660.964	-21.85
661.159	131.75
661.353	41.64
661.547	-52.56
661.742	92.84
661.936	35.5
662.13	-1.37
662.324	47.79
662.519	-81.24
662.713	60.07
662.907	-25.94
663.101	156.33
663.295	115.37
663.49	-89.43
663.684	33.45
663.878	-52.56
664.072	78.51
664.266	66.22
664.46	-36.18
664.654	43.69
664.849	-32.08
665.043	103.08
665.237	-27.99
665.431	-27.99
665.625	-1.37
665.819	74.41
666.013	-7.51
666.207	27.31
666.401	66.22
666.595	-13.65
666.789	-30.04
666.983	-44.37
667.177	68.27
667.371	41.64
667.565	88.75
667.759	-1.37
667.953	-52.56
668.147	-42.32
668.34	51.88
668.534	21.16
668.728	-7.51
668.922	-71
669.116	84.65
669.31	98.99
669.504	-126.29
669.697	-11.61
669.891	2.73
670.085	2.73
670.279	55.98
670.473	35.5
670.666	-15.7
670.86	-9.56
671.054	141.99
671.248	60.07
671.441	-44.37
671.635	129.7
671.829	-17.75
672.022	6.83
672.216	19.11
672.41	90.79
672.603	-91.48
672.797	19.11
672.99	68.27
673.184	74.41
673.378	-17.75
673.571	47.79
673.765	53.93
673.958	107.18
674.152	43.69
674.345	43.69
674.539	10.92
674.733	-1.37
674.926	66.22
675.12	29.35
675.313	-30.04
675.506	76.46
675.7	-38.23
675.893	12.97
676.087	31.4
676.28	117.42
676.474	90.79
676.667	74.41
676.86	-140.63
677.054	-52.56
677.247	-77.14
677.441	43.69
677.634	15.02
677.827	-15.7
678.02	45.74
678.214	103.08
678.407	-30.04
678.6	-27.99
678.794	98.99
678.987	47.79
679.18	10.92
679.373	31.4
679.567	90.79
679.76	-3.41
679.953	-64.85
680.146	4.78
680.339	101.03
680.533	45.74
680.726	23.21
680.919	109.22
681.112	-56.66
681.305	10.92
681.498	-40.28
681.691	-79.19
681.884	33.45
682.077	35.5
682.271	-144.72
682.464	66.22
682.657	-46.42
682.85	-42.32
683.043	45.74
683.236	78.51
683.429	-3.41
683.622	-77.14
683.815	-56.66
684.008	88.75
684.201	-11.61
684.393	66.22
684.586	39.59
684.779	76.46
684.972	-25.94
685.165	-52.56
685.358	-62.8
685.551	90.79
685.744	27.31
685.937	-17.75
686.129	117.42
686.322	125.61
686.515	58.03
686.708	-75.09
686.901	-68.95
687.093	-17.75
687.286	0.68
687.479	19.11
687.672	-5.46
687.864	12.97
688.057	90.79
688.25	-91.48
688.442	-42.32
688.635	-21.85
688.828	10.92
689.02	-1.37
689.213	-13.65
689.406	-9.56
689.598	66.22
689.791	2.73
689.984	31.4
690.176	125.61
690.369	-66.9
690.561	-54.61
690.754	-23.89
690.946	55.98
691.139	-17.75
691.331	37.55
691.524	27.31
691.716	96.94
691.909	-71
692.101	-89.43
692.294	39.59
692.486	-58.71
692.679	-21.85
692.871	-114
693.063	-15.7
693.256	88.75
693.448	88.75
693.641	2.73
693.833	82.6
694.025	-11.61
694.218	55.98
694.41	70.31
694.602	2.73
694.795	1669.78
694.987	4969.05
695.179	8364.59
695.372	6748.74
695.564	4917.86
695.756	4088.43
695.948	1925.77
696.14	991.9
696.333	234.15
696.525	39.59
696.717	90.79
696.909	-77.14
697.101	152.23
697.294	4.78
697.486	25.26
697.678	33.45
697.87	76.46
698.062	-21.85
698.254	-32.08
698.446	-3.41
698.638	31.4
698.83	27.31
699.022	23.21
699.215	-120.15
699.407	123.56
699.599	-36.18
699.791	41.64
699.983	41.64
700.175	96.94
700.367	37.55
700.558	88.75
700.75	-11.61
700.942	182.95
701.134	10.92
701.326	51.88
701.518	-5.46
701.71	72.36
701.902	-58.71
702.094	15.02
702.286	-101.72
702.477	92.84
702.669	107.18
702.861	-40.28
703.053	66.22
703.245	41.64
703.436	-48.47
703.628	107.18
703.82	23.21
704.012	98.99
704.203	-165.2
704.395	-25.94
704.587	-79.19
704.779	37.55
704.97	1598.1
705.162	4915.81
705.354	5798.48
705.545	5778
705.737	4543.08
705.929	2536.07
706.12	1776.27
706.312	426.66
706.503	70.31
706.695	58.03
706.887	86.7
707.078	-11.61
707.27	-34.13
707.461	-30.04
707.653	-36.18
707.844	51.88
708.036	-21.85
708.227	10.92
708.419	-97.62
708.61	-42.32
708.802	-15.7
708.993	94.89
709.185	74.41
709.376	66.22
709.567	-23.89
709.759	60.07
709.95	21.16
710.141	109.22
710.333	66.22
710.524	68.27
710.716	-50.52
710.907	82.6
711.098	41.64
711.289	152.23
711.481	-21.85
711.672	-25.94
711.863	96.94
712.055	105.13
712.246	41.64
712.437	-1.37
712.628	21.16
712.82	-99.67
713.011	12.97
713.202	6.83
713.393	-34.13
713.584	-118.1
713.775	10.92
713.967	-15.7
714.158	29.35
714.349	21.16
714.54	-25.94
714.731	-11.61
714.922	15.02
715.113	103.08
715.304	27.31
715.495	10.92
715.686	-54.61
715.877	-5.46
716.068	58.03
716.259	74.41
716.45	-15.7
716.641	21.16
716.832	-79.19
717.023	144.04
717.214	6.83
717.405	-11.61
717.596	-34.13
717.787	84.65
717.978	55.98
718.169	31.4
718.36	-81.24
718.55	76.46
718.741	-144.72
718.932	82.6
719.123	45.74
719.314	27.31
719.505	76.46
719.695	-42.32
719.886	45.74
720.077	-50.52
720.268	-5.46
720.458	33.45
720.649	49.83
720.84	92.84
721.031	-58.71
721.221	8.87
721.412	4.78
721.603	12.97
721.793	74.41
721.984	45.74
722.175	101.03
722.365	94.89
722.556	35.5
722.746	31.4
722.937	68.27
723.128	62.12
723.318	53.93
723.509	64.17
723.699	53.93
723.89	31.4
724.08	8.87
724.271	60.07
724.461	-87.38
724.652	39.59
724.842	90.79
725.033	6.83
725.223	31.4
725.414	21.16
725.604	53.93
725.794	37.55
725.985	74.41
726.175	10.92
726.366	78.51
726.556	107.18
726.746	92.84
726.937	27.31
727.127	23.21
727.317	-34.13
727.508	90.79
727.698	-5.46
727.888	-52.56
728.079	78.51
728.269	-64.85
728.459	-75.09
728.649	-83.28
728.84	-101.72
729.03	66.22
729.22	-60.76
729.41	86.7
729.6	113.32
729.791	-58.71
729.981	15.02
730.171	-52.56
730.361	55.98
730.551	-32.08
730.741	94.89
730.931	41.64
731.121	141.99
731.311	64.17
731.502	49.83
731.692	-89.43
731.882	23.21
732.072	35.5
732.262	-52.56
732.452	-58.71
732.642	23.21
732.832	-42.32
733.022	-42.32
733.212	78.51
733.402	-38.23
733.591	17.07
733.781	27.31
733.971	-3.41
734.161	10.92
734.351	31.4
734.541	62.12
734.731	74.41
734.921	-103.76
735.111	23.21
735.3	68.27
735.49	31.4
735.68	-9.56
735.87	17.07
736.06	-44.37
736.249	76.46
736.439	127.66
736.629	3148.41
736.819	6230.6
737.008	10164.75
737.198	10852.87
737.388	8030.77
737.577	6675.01
737.767	5050.97
737.957	2484.87
738.146	1993.36
738.336	232.1
738.526	162.47
738.715	131.75
738.905	-56.66
739.094	33.45
739.284	-3.41
739.474	-71
739.663	78.51
739.853	53.93
740.042	29.35
740.232	-30.04
740.421	80.55
740.611	-75.09
740.8	58.03
740.99	2.73
741.179	-50.52
741.369	-19.8
741.558	60.07
741.748	-36.18
741.937	55.98
742.126	51.88
742.316	-36.18
742.505	19.11
742.695	27.31
742.884	21.16
743.073	96.94
743.263	-13.65
743.452	-9.56
743.641	86.7
743.831	-68.95
744.02	19.11
744.209	53.93
744.398	82.6
744.588	-15.7
744.777	-32.08
744.966	66.22
745.155	119.46
745.345	-38.23
745.534	113.32
745.723	98.99
745.912	49.83
746.101	-19.8
746.29	66.22
746.48	72.36
746.669	96.94
746.858	-23.89
747.047	-81.24
747.236	-236.88
747.425	-5.46
747.614	70.31
747.803	148.14
747.992	55.98
748.181	78.51
748.37	43.69
748.559	60.07
748.748	1557.14
748.937	3998.32
749.126	5730.9
749.315	6947.39
749.504	7471.67
749.693	6548.04
749.882	8921.63
750.071	10441.23
750.26	10504.71
750.449	10482.19
750.638	8458.79
750.826	6062.67
751.015	4983.39
751.204	2835.07
751.393	1942.16
751.582	711.33
751.771	256.68
751.959	-36.18
752.148	94.89
752.337	35.5
752.526	53.93
752.714	-11.61
752.903	-1.37
753.092	58.03
753.281	33.45
753.469	98.99
753.658	19.11
753.847	-17.75
754.035	41.64
754.224	43.69
754.413	-46.42
754.601	-21.85
754.79	35.5
754.979	-40.28
755.167	8.87
755.356	51.88
755.544	84.65
755.733	25.26
755.921	19.11
756.11	-15.7
756.298	-101.72
756.487	78.51
756.675	43.69
756.864	-11.61
757.052	-71
757.241	-15.7
757.429	43.69
757.618	17.07
757.806	68.27
757.995	62.12
758.183	45.74
758.371	-34.13
758.56	-13.65
758.748	-56.66
758.937	-85.33
759.125	6.83
759.313	47.79
759.502	17.07
759.69	-32.08
759.878	4.78
760.066	17.07
760.255	-32.08
760.443	105.13
760.631	92.84
760.819	27.31
761.008	15.02
761.196	203.43
761.384	191.14
761.572	1829.52
761.761	3594.87
761.949	8655.4
762.137	15497.66
762.325	18303.38
762.513	17285.54
762.701	17072.55
762.889	13021.67
763.077	10146.32
763.266	8147.5
763.454	5642.84
763.642	3506.81
763.83	2581.12
764.018	932.51
764.206	406.18
764.394	203.43
764.582	88.75
764.77	-32.08
764.958	45.74
765.146	25.26
765.334	-36.18
765.522	49.83
765.71	25.26
765.898	-23.89
766.085	101.03
766.273	86.7
766.461	74.41
766.649	76.46
766.837	72.36
767.025	51.88
767.213	31.4
767.401	78.51
767.588	-50.52
767.776	66.22
767.964	-9.56
768.152	31.4
768.339	64.17
768.527	8.87
768.715	-46.42
768.903	49.83
769.09	-87.38
769.278	4.78
769.466	55.98
769.654	-19.8
769.841	94.89
770.029	33.45
770.217	37.55
770.404	4.78
770.592	164.52
770.779	228.01
770.967	3521.14
771.155	6953.54
771.342	9277.98
771.53	6298.19
771.717	5362.26
771.905	4096.62
772.092	2384.52
772.28	707.23
772.467	592.55
772.655	82.6
772.842	2.73
773.03	242.34
773.217	88.75
773.405	8.87
773.592	127.66
773.78	60.07
773.967	-19.8
774.154	-7.51
774.342	31.4
774.529	154.28
774.717	-27.99
774.904	-83.28
775.091	-15.7
775.279	125.61
775.466	0.68
775.653	4.78
775.841	8.87
776.028	105.13
776.215	8.87
776.402	47.79
776.59	17.07
776.777	55.98
776.964	-34.13
777.151	-66.9
777.338	25.26
777.526	78.51
777.713	-30.04
777.9	-19.8
778.087	72.36
778.274	55.98
778.461	25.26
778.649	-19.8
778.836	-15.7
779.023	58.03
779.21	-19.8
779.397	98.99
779.584	156.33
779.771	27.31
779.958	-25.94
780.145	47.79
780.332	103.08
780.519	-32.08
780.706	-79.19
780.893	58.03
781.08	-52.56
781.267	-25.94
781.454	19.11
781.641	53.93
781.828	78.51
782.015	27.31
782.202	58.03
782.388	33.45
782.575	-77.14
782.762	39.59
782.949	49.83
783.136	-23.89
783.323	62.12
783.509	33.45
783.696	51.88
783.883	-62.8
784.07	23.21
784.257	78.51
784.443	17.07
784.63	29.35
784.817	2.73
785.004	-38.23
785.19	49.83
785.377	-50.52
785.564	33.45
785.75	84.65
785.937	62.12
786.124	-5.46
786.31	58.03
786.497	51.88
786.683	58.03
786.87	15.02
787.057	74.41
787.243	47.79
787.43	29.35
787.616	115.37
787.803	27.31
787.989	10.92
788.176	-19.8
788.362	78.51
788.549	76.46
788.735	80.55
788.922	-23.89
789.108	35.5
789.295	-42.32
789.481	92.84
789.668	-19.8
789.854	51.88
790.04	39.59
790.227	-11.61
790.413	4.78
790.599	55.98
790.786	12.97
790.972	-64.85
791.158	35.5
791.345	-25.94
791.531	76.46
791.717	88.75
791.904	64.17
792.09	133.8
792.276	66.22
792.462	90.79
792.649	10.92
792.835	27.31
793.021	41.64
793.207	2.73
793.393	113.32
793.58	2218.63
793.766	5012.06
793.952	4334.18
794.138	4774.5
794.324	3418.74
794.51	1452.69
794.696	529.06
794.882	277.16
795.069	88.75
795.255	162.47
795.441	6.83
795.627	45.74
795.813	6.83
795.999	60.07
796.185	-91.48
796.371	-9.56
796.557	-40.28
796.743	74.41
796.929	-75.09
797.115	144.04
797.3	-3.41
797.486	76.46
797.672	137.9
797.858	70.31
798.044	-64.85
798.23	-116.05
798.416	80.55
798.602	39.59
798.788	-38.23
798.973	-38.23
799.159	119.46
799.345	39.59
799.531	371.37
799.717	696.99
799.902	2110.09
800.088	3601.01
800.274	4184.68
800.46	7080.51
800.645	7655.99
800.831	5059.17
801.017	3170.94
801.202	2878.08
801.388	1002.14
801.574	273.06
801.759	168.62
801.945	58.03
802.131	105.13
802.316	72.36
802.502	39.59
802.687	31.4
802.873	27.31
803.058	12.97
803.244	45.74
803.43	70.31
803.615	19.11
803.801	-68.95
803.986	43.69
804.172	19.11
804.357	-32.08
804.543	31.4
804.728	55.98
804.913	-25.94
805.099	-9.56
805.284	-9.56
805.47	70.31
805.655	66.22
805.84	58.03
806.026	72.36
806.211	31.4
806.397	101.03
806.582	-3.41
806.767	60.07
806.953	86.7
807.138	78.51
807.323	96.94
807.508	-9.56
807.694	-64.85
807.879	76.46
808.064	8.87
808.249	180.9
808.435	133.8
808.62	37.55
808.805	27.31
808.99	1772.18
809.175	4323.94
809.361	6443.59
809.546	7459.38
809.731	9474.59
809.916	8880.68
810.101	8337.96
810.286	10818.05
810.471	15124.93
810.656	14404.05
810.841	13447.65
811.026	14455.25
811.211	12693.99
811.396	9204.25
811.581	7780.92
811.766	6777.41
811.951	4878.94
812.136	2488.96
812.321	2259.59
812.506	1467.03
812.691	549.54
812.876	70.31
813.061	117.42
813.246	139.94
813.431	117.42
813.616	-32.08
813.801	27.31
813.986	43.69
814.17	45.74
814.355	39.59
814.54	66.22
814.725	178.86
814.91	-58.71
815.094	-54.61
815.279	-40.28
815.464	164.52
815.649	84.65
815.833	-19.8
816.018	-1.37
816.203	-25.94
816.388	-3.41
816.572	17.07
816.757	-66.9
816.942	-42.32
817.126	-17.75
817.311	-17.75
817.496	62.12
817.68	144.04
817.865	51.88
818.049	0.68
818.234	-11.61
818.419	64.17
818.603	43.69
818.788	-52.56
818.972	12.97
819.157	78.51
819.341	-50.52
819.526	-1.37
819.71	8.87
819.895	41.64
820.079	72.36
820.264	-3.41
820.448	29.35
820.633	10.92
820.817	-5.46
821.001	-5.46
821.186	103.08
821.37	21.16
821.554	-17.75
821.739	-7.51
821.923	-19.8
822.108	-120.15
822.292	-27.99
822.476	-3.41
822.66	39.59
822.845	-5.46
823.029	84.65
823.213	-44.37
823.398	-25.94
823.582	-9.56
823.766	144.04
823.95	6.83
824.134	-73.04
824.319	-15.7
824.503	-71
824.687	37.55
824.871	74.41
825.055	8.87
825.239	51.88
825.423	49.83
825.608	289.45
825.792	289.45
825.976	451.24
826.16	406.18
826.344	273.06
826.528	21.16
826.712	2.73
826.896	-66.9
827.08	31.4
827.264	45.74
827.448	-13.65
827.632	-77.14
827.816	6.83
828	74.41
828.184	-34.13
828.368	74.41
828.552	144.04
828.736	72.36
828.919	-32.08
829.103	-5.46
829.287	62.12
829.471	84.65
829.655	-66.9
829.839	72.36
830.023	45.74
830.206	27.31
830.39	-36.18
830.574	-52.56
830.758	-7.51
830.941	60.07
831.125	-3.41
831.309	39.59
831.493	-25.94
831.676	-91.48
831.86	17.07
832.044	68.27
832.227	33.45
832.411	78.51
832.595	53.93
832.778	-60.76
832.962	39.59
833.146	-3.41
833.329	-32.08
833.513	-42.32
833.696	6.83
833.88	-79.19
834.064	35.5
834.247	74.41
834.431	8.87
834.614	60.07
834.798	2.73
834.981	-50.52
835.165	-66.9
835.348	31.4
835.532	33.45
835.715	10.92
835.898	10.92
836.082	47.79
836.265	-73.04
836.449	35.5
836.632	12.97
836.815	94.89
836.999	49.83
837.182	-21.85
837.365	25.26
837.549	27.31
837.732	-23.89
837.915	94.89
838.099	2.73
838.282	-34.13
838.465	-7.51
838.648	-97.62
838.832	60.07
839.015	-25.94
839.198	17.07
839.381	66.22
839.565	-19.8
839.748	2.73
839.931	393.89
840.114	2253.45
840.297	3732.08
840.48	2335.37
840.663	2978.43
840.847	2437.77
841.03	1696.4
841.213	424.61
841.396	1114.78
841.579	2146.95
841.762	3666.55
841.945	4131.44
842.128	4166.25
842.311	3740.27
842.494	2763.39
842.677	504.48
842.86	221.86
843.043	101.03
843.226	60.07
843.409	-7.51
843.592	2.73
843.775	37.55
843.958	98.99
844.141	27.31
844.323	-19.8
844.506	25.26
844.689	70.31
844.872	-9.56
845.055	-64.85
845.238	66.22
845.42	-54.61
845.603	35.5
845.786	88.75
845.969	47.79
846.152	-44.37
846.334	58.03
846.517	49.83
846.7	45.74
846.883	27.31
847.065	70.31
847.248	-68.95
847.431	-62.8
847.613	66.22
847.796	72.36
847.979	-1.37
848.161	80.55
848.344	41.64
848.526	76.46
848.709	41.64
848.892	41.64
849.074	-5.46
849.257	2.73
849.439	19.11
849.622	-83.28
849.804	6.83
849.987	10.92
850.169	45.74
850.352	43.69
850.534	-52.56
850.717	-23.89
850.899	125.61
851.082	33.45
851.264	21.16
851.446	82.6
851.629	74.41
851.811	35.5
851.994	-17.75
852.176	49.83
852.358	-9.56
852.541	-34.13
852.723	-25.94
852.905	41.64
853.088	19.11
853.27	8.87
853.452	23.21
853.635	23.21
853.817	51.88
853.999	21.16
854.181	-19.8
854.363	55.98
854.546	66.22
854.728	70.31
854.91	33.45
855.092	25.26
855.274	17.07
855.457	39.59
855.639	-25.94
855.821	-42.32
856.003	119.46
856.185	-7.51
856.367	-9.56
856.549	-7.51
856.731	88.75
856.913	37.55
857.095	6.83
857.277	15.02
857.459	6.83
857.641	-42.32
857.823	-83.28
858.005	-62.8
858.187	12.97
858.369	-64.85
858.551	-130.39
858.733	15.02
858.915	27.31
859.097	-56.66
859.279	-27.99
859.461	55.98
859.643	-3.41
859.824	51.88
860.006	-81.24
860.188	21.16
860.37	-3.41
860.552	15.02
860.734	-25.94
860.915	66.22
861.097	-79.19
861.279	60.07
861.461	-105.81
861.642	-11.61
861.824	-30.04
862.006	137.9
862.188	-1.37
862.369	19.11
862.551	23.21
862.733	-71
862.914	-7.51
863.096	60.07
863.278	43.69
863.459	74.41
863.641	-71
863.822	-50.52
864.004	12.97
864.185	123.56
864.367	0.68
864.549	-77.14
864.73	-7.51
864.912	53.93
865.093	45.74
865.275	23.21
865.456	51.88
865.638	103.08
865.819	82.6
866.001	29.35
866.182	-3.41
866.363	117.42
866.545	-75.09
866.726	-64.85
866.908	-32.08
867.089	62.12
867.27	-75.09
867.452	53.93
867.633	43.69
867.814	12.97
867.996	86.7
868.177	15.02
868.358	113.32
868.54	-114
868.721	-27.99
868.902	94.89
869.083	-52.56
869.265	84.65
869.446	-54.61
869.627	-54.61
869.808	90.79
869.989	51.88
870.171	21.16
870.352	33.45
870.533	43.69
870.714	39.59
870.895	58.03
871.076	21.16
871.257	70.31
871.438	66.22
871.619	51.88
871.801	107.18
871.982	72.36
872.163	101.03
872.344	-19.8
872.525	-42.32
872.706	82.6
872.887	4.78
873.068	121.51
873.249	139.94
873.43	53.93
873.61	12.97
873.791	47.79
873.972	76.46
874.153	33.45
874.334	17.07
874.515	4.78
874.696	-27.99
874.877	68.27
875.058	25.26
875.238	43.69
875.419	49.83
875.6	-62.8
875.781	-58.71
875.962	19.11
876.142	12.97
876.323	39.59
876.504	-116.05
876.685	-40.28
876.865	66.22
877.046	64.17
877.227	60.07
877.407	-52.56
877.588	31.4
877.769	148.14
877.949	27.31
878.13	-71
878.311	-62.8
878.491	-23.89
878.672	90.79
878.853	-19.8
879.033	45.74
879.214	-66.9
879.394	-56.66
879.575	49.83
879.755	-3.41
879.936	-87.38
880.116	-136.53
880.297	4.78
880.477	-95.57
880.658	-120.15
880.838	0.68
881.019	-40.28
881.199	-3.41
881.38	12.97
881.56	27.31
881.74	-93.52
881.921	72.36
882.101	96.94
882.281	47.79
882.462	-54.61
882.642	-32.08
882.822	-64.85
883.003	8.87
883.183	127.66
883.363	17.07
883.544	47.79
883.724	-91.48
883.904	-21.85
884.084	121.51
884.265	27.31
884.445	78.51
884.625	15.02
884.805	43.69
884.985	64.17
885.166	-44.37
885.346	33.45
885.526	101.03
885.706	90.79
885.886	41.64
886.066	-1.37
886.246	31.4
886.426	-30.04
886.606	8.87
886.787	-30.04
886.967	4.78
887.147	119.46
887.327	51.88
887.507	-91.48
887.687	37.55
887.867	4.78
888.047	25.26
888.227	21.16
888.406	68.27
888.586	-52.56
888.766	8.87
888.946	88.75
889.126	27.31
889.306	25.26
889.486	-17.75
889.666	-25.94
889.846	-27.99
890.025	-19.8
890.205	47.79
890.385	-3.41
890.565	-52.56
890.745	6.83
890.924	12.97
891.104	0.68
891.284	78.51
891.464	94.89
891.643	80.55
891.823	-25.94
892.003	113.32
892.183	72.36
892.362	-11.61
892.542	15.02
892.722	-50.52
892.901	0.68
893.081	-1.37
893.26	88.75
893.44	-50.52
893.62	185
893.799	8.87
893.979	-11.61
894.158	-91.48
894.338	33.45
894.517	-19.8
894.697	-5.46
894.877	-60.76
895.056	121.51
895.236	-3.41
895.415	-21.85
895.594	47.79
895.774	23.21
895.953	72.36
896.133	-87.38
896.312	23.21
896.492	49.83
896.671	-30.04
896.85	-58.71
897.03	58.03
897.209	96.94
897.388	23.21
897.568	27.31
897.747	27.31
897.926	25.26
898.106	25.26
898.285	150.18
898.464	-19.8
898.643	-62.8
898.823	55.98
899.002	-77.14
899.181	-42.32
899.36	12.97
899.54	-48.47
899.719	-79.19
899.898	6.83
900.077	37.55
900.256	33.45
900.435	35.5
900.614	-56.66
900.794	94.89
900.973	121.51
901.152	-17.75
901.331	121.51
901.51	-142.68
901.689	92.84
901.868	70.31
902.047	109.22
902.226	78.51
902.405	-60.76
902.584	39.59
902.763	-21.85
902.942	21.16
903.121	2.73
903.3	-15.7
903.479	-7.51
903.658	43.69
903.837	2.73
904.015	-3.41
904.194	45.74
904.373	98.99
904.552	-52.56
904.731	-71
904.91	10.92
905.089	47.79
905.267	70.31
905.446	25.26
905.625	80.55
905.804	-19.8
905.982	47.79
906.161	-60.76
906.34	-3.41
906.519	-32.08
906.697	4.78
906.876	43.69
907.055	29.35
907.233	70.31
907.412	-23.89
907.591	-7.51
907.769	58.03
907.948	53.93
908.127	94.89
908.305	51.88
908.484	-9.56
908.662	-60.76
908.841	66.22
909.019	8.87
909.198	-42.32
909.377	-13.65
909.555	29.35
909.734	109.22
909.912	123.56
910.09	70.31
910.269	4.78
910.447	58.03
910.626	152.23
910.804	-19.8
910.983	33.45
911.161	-44.37
911.339	-23.89
911.518	53.93
911.696	-120.15
911.875	-60.76
912.053	168.62
912.231	-40.28
912.41	39.59
912.588	72.36
912.766	-44.37
912.944	-23.89
913.123	33.45
913.301	88.75
913.479	43.69
913.657	27.31
913.836	174.76
914.014	43.69
914.192	8.87
914.37	-25.94
914.548	-11.61
914.727	113.32
914.905	31.4
915.083	-66.9
915.261	2.73
915.439	45.74
915.617	58.03
915.795	15.02
915.973	15.02
916.151	10.92
916.329	-9.56
916.508	17.07
916.686	-60.76
916.864	31.4
917.042	-30.04
917.22	-9.56
917.398	25.26
917.575	47.79
917.753	66.22
917.931	2.73
918.109	-60.76
918.287	33.45
918.465	-11.61
918.643	113.32
918.821	-21.85
918.999	55.98
919.177	-40.28
919.354	113.32
919.532	47.79
919.71	-62.8
919.888	21.16
920.066	23.21
920.243	-9.56
920.421	-48.47
920.599	51.88
920.777	0.68
920.954	21.16
921.132	45.74
921.31	88.75
921.488	84.65
921.665	23.21
921.843	-58.71
922.021	-81.24
922.198	49.83
922.376	72.36
922.553	164.52
922.731	148.14
922.909	6.83
923.086	17.07
923.264	43.69
923.441	47.79
923.619	27.31
923.796	17.07
923.974	-48.47
924.152	-1.37
924.329	68.27
924.507	-66.9
924.684	15.02
924.861	41.64
925.039	35.5
925.216	35.5
925.394	74.41
925.571	-3.41
925.749	70.31
925.926	-15.7
926.103	-7.51
926.281	45.74
926.458	-46.42
926.635	51.88
926.813	-11.61
926.99	-1.37
927.167	35.5
927.345	-46.42
927.522	6.83
927.699	55.98
927.876	88.75
928.054	-3.41
928.231	-132.44
928.408	0.68
928.585	-85.33
928.763	-101.72
928.94	74.41
929.117	113.32
929.294	-9.56
929.471	31.4
929.648	0.68
929.825	6.83
930.003	-27.99
930.18	-68.95
930.357	58.03
930.534	-62.8
930.711	27.31
930.888	47.79
931.065	15.02
931.242	-52.56
931.419	51.88
931.596	23.21
931.773	17.07
931.95	-30.04
932.127	31.4
932.304	-32.08
932.481	45.74
932.658	-128.34
932.835	27.31
933.011	45.74
933.188	86.7
933.365	55.98
933.542	45.74
933.719	15.02
933.896	21.16
934.073	-52.56
934.249	4.78
934.426	37.55
934.603	-60.76
934.78	53.93
934.957	6.83
935.133	101.03
935.31	135.85
935.487	49.83
935.664	31.4
935.84	60.07
936.017	-48.47
936.194	66.22
936.37	-101.72
936.547	-34.13
936.724	19.11
936.9	35.5
937.077	25.26
937.253	72.36
937.43	-15.7
937.607	-5.46
937.783	-38.23
937.96	12.97
938.136	62.12
938.313	125.61
938.489	-42.32
938.666	-36.18
938.842	37.55
939.019	-7.51
939.195	-73.04
939.372	84.65
939.548	53.93
939.725	62.12
939.901	-42.32
940.077	41.64
940.254	-17.75
940.43	-15.7
940.607	-21.85
940.783	2.73
940.959	98.99
941.136	101.03
941.312	2.73
941.488	45.74
941.665	23.21
941.841	68.27
942.017	21.16
942.193	117.42
942.37	10.92
942.546	-36.18
942.722	29.35
942.898	-38.23
943.074	-44.37
943.251	72.36
943.427	-23.89
943.603	113.32
943.779	-66.9
943.955	-19.8
944.131	51.88
944.308	43.69
944.484	78.51
944.66	33.45
944.836	-60.76
945.012	-3.41
945.188	29.35
945.364	121.51
945.54	-21.85
945.716	-116.05
945.892	12.97
946.068	-11.61
946.244	6.83
946.42	74.41
946.596	-42.32
946.772	21.16
946.948	-36.18
947.124	-9.56
947.3	84.65
947.475	113.32
947.651	113.32
947.827	47.79
948.003	-95.57
948.179	41.64
948.355	-60.76
948.531	-40.28
948.706	41.64
948.882	53.93
949.058	-42.32
949.234	60.07
949.409	-15.7
949.585	-11.61
949.761	-116.05
949.937	-36.18
950.112	-7.51
950.288	84.65
950.464	15.02
950.639	117.42
950.815	80.55
950.991	43.69
951.166	78.51
951.342	92.84
951.518	98.99
951.693	37.55
951.869	-11.61
952.044	70.31
952.22	103.08
952.395	-111.96
952.571	15.02
952.747	29.35
952.922	-83.28
953.098	41.64
953.273	2.73
953.448	-15.7
953.624	-48.47
953.799	107.18
953.975	-27.99
954.15	12.97
954.326	10.92
954.501	-11.61
954.676	-46.42
954.852	-15.7
955.027	25.26
955.203	-34.13
955.378	113.32
955.553	113.32
955.729	35.5
955.904	-42.32
956.079	37.55
956.254	62.12
956.43	62.12
956.605	111.27
956.78	-11.61
956.955	62.12
957.131	6.83
957.306	-44.37
957.481	2.73
957.656	-17.75
957.831	27.31
958.007	-48.47
958.182	41.64
958.357	80.55
958.532	-64.85
958.707	-1.37
958.882	55.98
959.057	-3.41
959.232	8.87
959.407	-75.09
959.582	0.68
959.757	113.32
959.932	-25.94
960.107	84.65
960.282	41.64
960.457	94.89
960.632	-30.04
960.807	27.31
960.982	-50.52
961.157	-11.61
961.332	10.92
961.507	-95.57
961.682	4.78
961.857	-50.52
962.032	-60.76
962.206	-105.81
962.381	10.92
962.556	-9.56
962.731	0.68
962.906	4.78
963.081	23.21
963.255	-13.65
963.43	-46.42
963.605	19.11
963.78	-23.89
963.954	-30.04
964.129	103.08
964.304	-9.56
964.479	-15.7
964.653	-19.8
964.828	-50.52
965.003	10.92
965.177	58.03
965.352	-11.61
965.526	10.92
965.701	141.99
965.876	58.03
966.05	-97.62
966.225	45.74
966.399	-9.56
966.574	-25.94
966.748	31.4
966.923	-3.41
967.098	31.4
967.272	-9.56
967.446	19.11
967.621	-7.51
967.795	43.69
967.97	10.92
968.144	76.46
968.319	-19.8
968.493	-42.32
968.668	51.88
968.842	94.89
969.016	96.94
969.191	4.78
969.365	0.68
969.539	8.87
969.714	8.87
969.888	-42.32
970.062	74.41
970.237	66.22
970.411	23.21
970.585	66.22
970.759	39.59
970.934	-27.99
971.108	133.8
971.282	-11.61
971.456	-46.42
971.63	94.89
971.805	-5.46
971.979	76.46
972.153	-68.95
972.327	60.07
972.501	45.74
972.675	45.74
972.849	-52.56
973.024	68.27
973.198	35.5
973.372	-50.52
973.546	19.11
973.72	37.55
973.894	-58.71
974.068	-27.99
974.242	86.7
974.416	-19.8
974.59	-15.7
974.764	-56.66
974.938	-7.51
975.112	-64.85
975.286	-23.89
975.46	86.7
975.633	10.92
975.807	39.59
975.981	33.45
976.155	-19.8
976.329	-21.85
976.503	21.16
976.677	37.55
976.85	-32.08
977.024	17.07
977.198	17.07
977.372	-50.52
977.546	55.98
977.719	-73.04
977.893	27.31
978.067	-32.08
978.241	37.55
978.414	-11.61
978.588	-42.32
978.762	17.07
978.935	12.97
979.109	8.87
979.283	82.6
979.456	94.89
979.63	98.99
979.804	15.02
979.977	-17.75
980.151	-34.13
980.324	64.17
980.498	19.11
980.671	70.31
980.845	-36.18
981.018	-19.8
981.192	-48.47
981.365	-19.8
981.539	107.18
981.712	-7.51
981.886	-75.09
982.059	-54.61
982.233	15.02
982.406	-3.41
982.58	60.07
982.753	123.56
982.926	-38.23
983.1	129.7
983.273	98.99
983.446	2.73
983.62	39.59
983.793	72.36
983.966	31.4
984.14	98.99
984.313	31.4
984.486	82.6
984.66	-3.41
984.833	90.79
985.006	-13.65
985.179	25.26
985.352	35.5
985.526	-17.75
985.699	2.73
985.872	0.68
986.045	80.55
986.218	41.64
986.391	31.4
986.565	101.03
986.738	-52.56
986.911	-44.37
987.084	12.97
987.257	78.51
987.43	-114
987.603	121.51
987.776	23.21
987.949	76.46
988.122	4.78
988.295	-52.56
988.468	-83.28
988.641	-21.85
988.814	25.26
988.987	-3.41
989.16	-23.89
989.333	29.35
989.506	23.21
989.679	53.93
989.852	113.32
990.025	-19.8
990.197	15.02
990.37	-5.46
990.543	-13.65
990.716	15.02
990.889	37.55
991.062	-64.85
991.234	10.92
991.407	-81.24
991.58	-1.37
991.753	-50.52
991.925	55.98
992.098	-32.08
992.271	-27.99
992.444	15.02
992.616	-15.7
992.789	47.79
992.962	4.78
993.134	41.64
993.307	33.45
993.479	-50.52
993.652	2.73
993.825	70.31
993.997	70.31
994.17	25.26
994.342	21.16
994.515	21.16
994.688	62.12
994.86	-11.61
995.033	-48.47
995.205	123.56
995.378	43.69
995.55	70.31
995.723	-40.28
995.895	31.4
996.067	53.93
996.24	53.93
996.412	25.26
996.585	-66.9
996.757	49.83
996.929	6.83
997.102	62.12
997.274	-19.8
997.447	88.75
997.619	10.92
997.791	76.46
997.964	-36.18
998.136	4.78
998.308	-19.8
998.48	-3.41
998.653	96.94
998.825	-75.09
998.997	-21.85
999.169	-27.99
999.342	-13.65
999.514	-34.13
999.686	-25.94
999.858	15.02
1000.03	162.47
1000.202	-124.24
1000.374	-144.72
1000.547	29.35
1000.719	-122.2
1000.891	-46.42
1001.063	68.27
1001.235	29.35
1001.407	-58.71
1001.579	-62.8
1001.751	6.83
1001.923	-114
1002.095	0.68
1002.267	6.83
1002.439	0.68
1002.611	6.83
1002.783	74.41
1002.955	41.64
1003.127	-15.7
1003.299	-19.8
1003.471	-34.13
1003.643	123.56
1003.815	-7.51
1003.986	-3.41
1004.158	123.56
1004.33	64.17
1004.502	-34.13
1004.674	15.02
1004.846	107.18
1005.017	-62.8
1005.189	19.11
1005.361	39.59
1005.533	55.98
1005.704	-3.41
1005.876	-30.04
1006.048	92.84
1006.22	10.92
1006.391	27.31
1006.563	12.97
1006.735	0.68
1006.906	-81.24
1007.078	-159.06
1007.25	-30.04
1007.421	-52.56
1007.593	4.78
1007.764	-40.28
1007.936	141.99
1008.108	-32.08
1008.279	109.22
1008.451	-21.85
1008.622	55.98
1008.794	51.88
1008.965	31.4
1009.137	58.03
1009.308	4.78
1009.48	-3.41
1009.651	82.6
1009.823	53.93
1009.994	70.31
1010.165	17.07
1010.337	-46.42
1010.508	31.4
1010.68	12.97
1010.851	-30.04
1011.022	-122.2
1011.194	-15.7
1011.365	6.83
1011.536	-25.94
1011.708	37.55
1011.879	78.51
1012.05	49.83
1012.222	107.18
1012.393	101.03
1012.564	-3.41
1012.735	86.7
1012.906	-3.41
1013.078	-52.56
1013.249	-42.32
1013.42	-95.57
1013.591	27.31
1013.762	127.66
1013.934	94.89
1014.105	-56.66
1014.276	121.51
1014.447	-32.08
1014.618	74.41
1014.789	25.26
1014.96	101.03
1015.131	-9.56
1015.302	70.31
1015.473	-9.56
1015.644	35.5
1015.815	-111.96
1015.986	2.73
1016.157	58.03
1016.328	-7.51
1016.499	10.92
1016.67	-13.65
1016.841	15.02
1017.012	19.11
1017.183	37.55
1017.354	4.78
1017.525	23.21
1017.696	-66.9
1017.867	-3.41
1018.037	31.4
1018.208	47.79
1018.379	-95.57
1018.55	-17.75
1018.721	60.07
1018.891	21.16
1019.062	-32.08
1019.233	-40.28
1019.404	92.84
1019.574	10.92
1019.745	-116.05
1019.916	-21.85
1020.087	39.59
1020.257	-79.19
1020.428	-144.72
1020.599	49.83
1020.769	-36.18
1020.94	-19.8
1021.11	82.6
1021.281	-62.8
1021.452	53.93
1021.622	-42.32
1021.793	21.16
1021.963	66.22
1022.134	-140.63
1022.305	-13.65
1022.475	51.88
1022.646	166.57
1022.816	-111.96
1022.987	-9.56
1023.157	88.75
1023.327	41.64
1023.498	-50.52
1023.668	33.45
1023.839	19.11
1024.009	-101.72
1024.18	21.16
1024.35	-30.04
1024.52	-44.37
1024.691	47.79
1024.861	37.55
1025.031	8.87
1025.202	27.31
1025.372	60.07
1025.542	-11.61
1025.713	105.13
1025.883	111.27
1026.053	-21.85
1026.223	55.98
1026.394	25.26
1026.564	-13.65
1026.734	41.64
1026.904	37.55
1027.074	49.83
1027.245	-5.46
1027.415	88.75
1027.585	62.12
1027.755	6.83
1027.925	-134.48
1028.095	-30.04
1028.265	86.7
1028.435	21.16
1028.606	4.78
1028.776	-25.94
1028.946	29.35
1029.116	47.79
1029.286	-13.65
1029.456	-21.85
1029.626	-109.91
1029.796	-1.37
1029.966	-17.75
1030.136	6.83
1030.306	-5.46
1030.475	111.27
1030.645	-46.42
1030.815	33.45
1030.985	2.73
1031.155	10.92
1031.325	0.68
1031.495	-48.47
1031.665	37.55
1031.835	137.9
1032.004	-3.41
1032.174	-38.23
1032.344	-44.37
1032.514	31.4
1032.684	12.97
1032.853	-34.13
1033.023	39.59
1033.193	131.75
1033.362	-54.61
1033.532	-36.18
1033.702	-75.09
1033.872	103.08
1034.041	-50.52
1034.211	98.99
1034.381	-73.04
1034.55	-46.42
1034.72	-9.56
1034.889	139.94
1035.059	12.97
1035.229	-36.18
1035.398	-17.75
1035.568	158.38
1035.737	-91.48
1035.907	41.64
1036.076	0.68
1036.246	-15.7
1036.415	76.46
1036.585	-25.94
1036.754	-44.37
1036.924	-42.32
1037.093	6.83
1037.263	-17.75
1037.432	94.89
1037.601	37.55
1037.771	-75.09
1037.94	19.11
1038.11	-89.43
1038.279	-122.2
1038.448	-62.8
1038.618	-21.85
1038.787	74.41
1038.956	-83.28
1039.126	-36.18
1039.295	4.78
1039.464	105.13
1039.633	37.55
1039.803	12.97
1039.972	107.18
1040.141	-25.94
1040.31	41.64
1040.479	60.07
1040.649	88.75
1040.818	-79.19
1040.987	12.97
1041.156	0.68
1041.325	-34.13
1041.494	0.68
1041.663	19.11
1041.833	-5.46
1042.002	103.08
1042.171	-52.56
1042.34	-152.92
1042.509	21.16
1042.678	-58.71
