Data from LSP56_S6_Subt2_15-37-53-583.txt Node
Date: Wed Aug 09 15:37:53 EDT 2023
User: Emmanuel
Spectrometer: USB4A00615
Scans to average: 1
Trigger mode: 1
Integration Time (sec): 1.000000E-2
Electric dark correction enabled: true
Boxcar width: 0
XAxis mode: Wavelengths
Number of Pixels in Spectrum: 3648
>>>>>Begin Spectral Data<<<<<
346.606	-106.32
346.818	-106.32
347.029	-106.32
347.241	47.27
347.452	129.19
347.664	6.31
347.876	49.32
348.087	32.94
348.299	-48.98
348.51	67.75
348.722	-3.93
348.933	-63.32
349.145	2.22
349.356	-40.79
349.568	-24.4
349.779	22.7
349.991	0.17
350.202	-14.17
350.414	59.56
350.625	-16.21
350.836	-46.93
351.048	49.32
351.259	-10.07
351.471	22.7
351.682	75.95
351.893	16.55
352.105	92.33
352.316	61.61
352.527	-36.69
352.739	-79.7
352.95	47.27
353.161	-10.07
353.372	10.41
353.584	28.84
353.795	82.09
354.006	69.8
354.217	-10.07
354.429	2.22
354.64	-57.17
354.851	-61.27
355.062	-30.55
355.274	-48.98
355.485	-44.88
355.696	-139.09
355.907	-124.76
356.118	30.89
356.329	84.14
356.54	-40.79
356.752	-108.37
356.963	135.34
357.174	114.86
357.385	-18.26
357.596	2.22
357.807	-22.36
358.018	-30.55
358.229	71.85
358.44	-3.93
358.651	12.46
358.862	47.27
359.073	-12.12
359.284	8.36
359.495	24.75
359.706	47.27
359.917	80.04
360.128	43.18
360.339	0.17
360.55	51.37
360.761	30.89
360.972	26.79
361.182	-53.08
361.393	14.51
361.604	77.99
361.815	30.89
362.026	96.43
362.237	24.75
362.447	-18.26
362.658	2.22
362.869	94.38
363.08	34.99
363.291	-20.31
363.501	88.23
363.712	-3.93
363.923	61.61
364.134	-34.64
364.344	-75.6
364.555	92.33
364.766	53.42
364.976	12.46
365.187	24.75
365.398	22.7
365.608	-67.41
365.819	-81.75
366.03	-22.36
366.24	92.33
366.451	-196.43
366.662	114.86
366.872	-38.74
367.083	77.99
367.293	73.9
367.504	123.05
367.714	-12.12
367.925	-3.93
368.135	-44.88
368.346	112.81
368.557	16.55
368.767	53.42
368.977	-16.21
369.188	-8.02
369.398	104.62
369.609	84.14
369.819	16.55
370.03	34.99
370.24	133.29
370.451	-42.84
370.661	20.65
370.871	204.97
371.082	-18.26
371.292	108.71
371.502	-32.6
371.713	39.08
371.923	14.51
372.133	53.42
372.344	0.17
372.554	34.99
372.764	59.56
372.975	59.56
373.185	-3.93
373.395	-81.75
373.605	-38.74
373.816	-81.75
374.026	86.19
374.236	-24.4
374.446	-24.4
374.656	34.99
374.867	18.6
375.077	6.31
375.287	59.56
375.497	-32.6
375.707	0.17
375.917	-73.56
376.127	-5.97
376.338	45.23
376.548	-38.74
376.758	-44.88
376.968	112.81
377.178	30.89
377.388	-87.89
377.598	14.51
377.808	-63.32
378.018	127.14
378.228	22.7
378.438	-18.26
378.648	18.6
378.858	86.19
379.068	-44.88
379.278	8.36
379.488	57.51
379.698	-46.93
379.908	-22.36
380.118	32.94
380.327	24.75
380.537	-48.98
380.747	-87.89
380.957	63.66
381.167	0.17
381.377	94.38
381.587	-1.88
381.796	45.23
382.006	-3.93
382.216	100.52
382.426	8.36
382.636	16.55
382.845	14.51
383.055	141.48
383.265	49.32
383.475	34.99
383.684	4.27
383.894	90.28
384.104	-3.93
384.313	37.03
384.523	28.84
384.733	-14.17
384.942	-12.12
385.152	-79.7
385.362	-81.75
385.571	-18.26
385.781	-16.21
385.991	-14.17
386.2	69.8
386.41	-81.75
386.619	69.8
386.829	96.43
387.038	-14.17
387.248	28.84
387.457	20.65
387.667	73.9
387.876	2.22
388.086	-32.6
388.295	-48.98
388.505	45.23
388.714	-14.17
388.924	-53.08
389.133	92.33
389.343	-87.89
389.552	-44.88
389.762	18.6
389.971	-38.74
390.18	-12.12
390.39	114.86
390.599	71.85
390.808	-8.02
391.018	-3.93
391.227	39.08
391.436	4.27
391.646	88.23
391.855	69.8
392.064	-30.55
392.274	121
392.483	-10.07
392.692	26.79
392.901	-38.74
393.111	-38.74
393.32	41.13
393.529	45.23
393.738	90.28
393.947	-1.88
394.157	141.48
394.366	12.46
394.575	112.81
394.784	12.46
394.993	-38.74
395.202	63.66
395.411	-12.12
395.62	147.62
395.83	88.23
396.039	-44.88
396.248	-75.6
396.457	28.84
396.666	22.7
396.875	-16.21
397.084	41.13
397.293	16.55
397.502	-34.64
397.711	-40.79
397.92	51.37
398.129	-38.74
398.338	45.23
398.547	-20.31
398.756	-24.4
398.965	102.57
399.174	34.99
399.382	53.42
399.591	-73.56
399.8	-5.97
400.009	-20.31
400.218	55.47
400.427	-10.07
400.636	77.99
400.844	20.65
401.053	90.28
401.262	-110.42
401.471	77.99
401.68	-53.08
401.888	37.03
402.097	94.38
402.306	-3.93
402.515	12.46
402.723	75.95
402.932	82.09
403.141	71.85
403.35	-24.4
403.558	-32.6
403.767	77.99
403.976	-8.02
404.184	-16.21
404.393	-14.17
404.602	-14.17
404.81	39.08
405.019	-118.61
405.227	-22.36
405.436	55.47
405.645	127.14
405.853	-3.93
406.062	-42.84
406.27	45.23
406.479	-36.69
406.687	12.46
406.896	-65.36
407.104	127.14
407.313	69.8
407.521	30.89
407.73	-5.97
407.938	32.94
408.147	-20.31
408.355	-3.93
408.563	139.43
408.772	-36.69
408.98	137.38
409.189	-26.45
409.397	86.19
409.605	-34.64
409.814	121
410.022	65.71
410.23	-57.17
410.439	51.37
410.647	-1.88
410.855	-69.46
411.064	10.41
411.272	-24.4
411.48	30.89
411.688	59.56
411.897	41.13
412.105	2.22
412.313	98.47
412.521	49.32
412.73	104.62
412.938	-51.03
413.146	-65.36
413.354	82.09
413.562	39.08
413.77	28.84
413.979	94.38
414.187	53.42
414.395	-71.51
414.603	-5.97
414.811	4.27
415.019	0.17
415.227	43.18
415.435	106.67
415.643	94.38
415.851	-10.07
416.059	-18.26
416.267	75.95
416.475	61.61
416.683	32.94
416.891	63.66
417.099	26.79
417.307	133.29
417.515	16.55
417.723	145.58
417.931	151.72
418.139	147.62
418.347	65.71
418.555	0.17
418.763	-28.5
418.971	47.27
419.179	-46.93
419.386	22.7
419.594	-14.17
419.802	-14.17
420.01	45.23
420.218	116.9
420.426	14.51
420.633	61.61
420.841	-1.88
421.049	-36.69
421.257	-1.88
421.464	80.04
421.672	55.47
421.88	32.94
422.088	-26.45
422.295	110.76
422.503	106.67
422.711	86.19
422.918	55.47
423.126	-16.21
423.334	-30.55
423.541	24.75
423.749	-38.74
423.956	-12.12
424.164	22.7
424.372	20.65
424.579	2.22
424.787	96.43
424.994	67.75
425.202	-22.36
425.409	-32.6
425.617	67.75
425.824	-40.79
426.032	-34.64
426.239	-65.36
426.447	161.96
426.654	4.27
426.862	22.7
427.069	82.09
427.277	123.05
427.484	90.28
427.692	53.42
427.899	30.89
428.106	47.27
428.314	67.75
428.521	86.19
428.728	59.56
428.936	82.09
429.143	77.99
429.351	8.36
429.558	-53.08
429.765	-1.88
429.972	112.81
430.18	-61.27
430.387	59.56
430.594	-53.08
430.801	61.61
431.009	-20.31
431.216	73.9
431.423	-12.12
431.63	55.47
431.838	12.46
432.045	73.9
432.252	47.27
432.459	34.99
432.666	28.84
432.873	14.51
433.081	45.23
433.288	59.56
433.495	-108.37
433.702	28.84
433.909	-22.36
434.116	51.37
434.323	34.99
434.53	-22.36
434.737	84.14
434.944	6.31
435.151	18.6
435.358	-100.18
435.565	49.32
435.772	2.22
435.979	16.55
436.186	114.86
436.393	71.85
436.6	110.76
436.807	20.65
437.014	67.75
437.221	-12.12
437.428	-24.4
437.635	139.43
437.841	94.38
438.048	96.43
438.255	-22.36
438.462	0.17
438.669	47.27
438.876	-44.88
439.082	26.79
439.289	-14.17
439.496	-46.93
439.703	51.37
439.91	-161.62
440.116	77.99
440.323	34.99
440.53	-126.8
440.737	-48.98
440.943	43.18
441.15	-44.88
441.357	-91.99
441.563	14.51
441.77	-3.93
441.977	41.13
442.183	6.31
442.39	37.03
442.597	-26.45
442.803	2.22
443.01	-5.97
443.216	-104.28
443.423	114.86
443.63	-61.27
443.836	104.62
444.043	6.31
444.249	12.46
444.456	49.32
444.662	59.56
444.869	34.99
445.075	-16.21
445.282	34.99
445.488	-1.88
445.695	49.32
445.901	-10.07
446.107	92.33
446.314	-3.93
446.52	82.09
446.727	14.51
446.933	20.65
447.139	22.7
447.346	65.71
447.552	41.13
447.759	-87.89
447.965	-34.64
448.171	26.79
448.378	43.18
448.584	73.9
448.79	100.52
448.996	-32.6
449.203	118.95
449.409	-16.21
449.615	34.99
449.821	32.94
450.028	-34.64
450.234	34.99
450.44	47.27
450.646	30.89
450.852	-40.79
451.059	18.6
451.265	26.79
451.471	-61.27
451.677	22.7
451.883	166.06
452.089	49.32
452.295	53.42
452.502	-16.21
452.708	75.95
452.914	59.56
453.12	22.7
453.326	10.41
453.532	151.72
453.738	67.75
453.944	53.42
454.15	-8.02
454.356	71.85
454.562	2.22
454.768	-20.31
454.974	-26.45
455.18	84.14
455.386	116.9
455.592	106.67
455.798	-8.02
456.003	4.27
456.209	102.57
456.415	-20.31
456.621	-8.02
456.827	65.71
457.033	30.89
457.239	8.36
457.444	114.86
457.65	34.99
457.856	-94.04
458.062	14.51
458.268	12.46
458.473	26.79
458.679	30.89
458.885	88.23
459.091	53.42
459.296	71.85
459.502	-53.08
459.708	67.75
459.914	32.94
460.119	41.13
460.325	-32.6
460.531	4.27
460.736	71.85
460.942	100.52
461.147	-32.6
461.353	-36.69
461.559	75.95
461.764	71.85
461.97	-8.02
462.175	-30.55
462.381	112.81
462.587	-26.45
462.792	-102.23
462.998	-8.02
463.203	104.62
463.409	-46.93
463.614	47.27
463.82	37.03
464.025	12.46
464.231	-38.74
464.436	-18.26
464.641	-16.21
464.847	98.47
465.052	14.51
465.258	51.37
465.463	30.89
465.669	65.71
465.874	-8.02
466.079	73.9
466.285	141.48
466.49	16.55
466.695	88.23
466.901	39.08
467.106	16.55
467.311	-69.46
467.516	-18.26
467.722	-14.17
467.927	102.57
468.132	8.36
468.338	-1.88
468.543	-14.17
468.748	-24.4
468.953	6.31
469.158	86.19
469.364	-3.93
469.569	8.36
469.774	37.03
469.979	-10.07
470.184	75.95
470.389	34.99
470.594	18.6
470.8	110.76
471.005	-12.12
471.21	63.66
471.415	39.08
471.62	69.8
471.825	28.84
472.03	2.22
472.235	-16.21
472.44	69.8
472.645	88.23
472.85	32.94
473.055	57.51
473.26	86.19
473.465	-61.27
473.67	-10.07
473.875	82.09
474.08	59.56
474.285	82.09
474.49	-57.17
474.695	34.99
474.899	20.65
475.104	-46.93
475.309	127.14
475.514	-3.93
475.719	-71.51
475.924	65.71
476.128	20.65
476.333	-59.22
476.538	22.7
476.743	164.01
476.948	73.9
477.152	30.89
477.357	-71.51
477.562	98.47
477.767	51.37
477.971	41.13
478.176	67.75
478.381	-63.32
478.585	116.9
478.79	28.84
478.995	26.79
479.199	-32.6
479.404	-1.88
479.609	-3.93
479.813	53.42
480.018	100.52
480.223	129.19
480.427	71.85
480.632	110.76
480.836	96.43
481.041	45.23
481.245	45.23
481.45	18.6
481.654	-51.03
481.859	34.99
482.063	28.84
482.268	102.57
482.472	28.84
482.677	100.52
482.881	59.56
483.086	-36.69
483.29	75.95
483.495	77.99
483.699	84.14
483.903	84.14
484.108	145.58
484.312	34.99
484.517	80.04
484.721	55.47
484.925	-3.93
485.13	26.79
485.334	18.6
485.538	-38.74
485.743	12.46
485.947	-42.84
486.151	-1.88
486.355	37.03
486.56	28.84
486.764	-36.69
486.968	45.23
487.172	10.41
487.377	84.14
487.581	174.25
487.785	6.31
487.989	127.14
488.193	37.03
488.397	104.62
488.602	43.18
488.806	2.22
489.01	14.51
489.214	104.62
489.418	92.33
489.622	-38.74
489.826	104.62
490.03	22.7
490.234	14.51
490.438	-18.26
490.642	41.13
490.846	84.14
491.05	41.13
491.254	-167.76
491.458	204.97
491.662	86.19
491.866	159.91
492.07	22.7
492.274	-10.07
492.478	73.9
492.682	129.19
492.886	-18.26
493.09	84.14
493.294	12.46
493.498	73.9
493.701	30.89
493.905	86.19
494.109	65.71
494.313	10.41
494.517	22.7
494.721	75.95
494.924	63.66
495.128	-71.51
495.332	49.32
495.536	-40.79
495.739	-61.27
495.943	47.27
496.147	47.27
496.351	127.14
496.554	49.32
496.758	-36.69
496.962	-10.07
497.165	63.66
497.369	45.23
497.573	37.03
497.776	133.29
497.98	16.55
498.184	61.61
498.387	20.65
498.591	26.79
498.794	104.62
498.998	24.75
499.202	102.57
499.405	-30.55
499.609	151.72
499.812	0.17
500.016	-8.02
500.219	164.01
500.423	143.53
500.626	22.7
500.83	73.9
501.033	96.43
501.237	-16.21
501.44	168.1
501.643	77.99
501.847	65.71
502.05	28.84
502.254	4.27
502.457	32.94
502.66	86.19
502.864	34.99
503.067	22.7
503.271	41.13
503.474	32.94
503.677	45.23
503.88	73.9
504.084	41.13
504.287	-40.79
504.49	86.19
504.694	43.18
504.897	69.8
505.1	37.03
505.303	-30.55
505.507	-32.6
505.71	-14.17
505.913	84.14
506.116	-5.97
506.319	157.86
506.522	30.89
506.726	114.86
506.929	24.75
507.132	-5.97
507.335	73.9
507.538	4.27
507.741	24.75
507.944	-28.5
508.147	8.36
508.35	45.23
508.553	10.41
508.756	-24.4
508.959	61.61
509.163	92.33
509.366	106.67
509.569	20.65
509.771	-73.56
509.974	45.23
510.177	12.46
510.38	16.55
510.583	32.94
510.786	-46.93
510.989	106.67
511.192	80.04
511.395	16.55
511.598	121
511.801	59.56
512.004	-22.36
512.206	-67.41
512.409	16.55
512.612	16.55
512.815	14.51
513.018	-16.21
513.22	108.71
513.423	116.9
513.626	22.7
513.829	-71.51
514.032	18.6
514.234	55.47
514.437	45.23
514.64	118.95
514.842	24.75
515.045	65.71
515.248	26.79
515.45	28.84
515.653	14.51
515.856	135.34
516.058	-18.26
516.261	202.92
516.464	12.46
516.666	116.9
516.869	118.95
517.071	114.86
517.274	145.58
517.477	18.6
517.679	53.42
517.882	92.33
518.084	18.6
518.287	-44.88
518.489	123.05
518.692	112.81
518.894	69.8
519.097	172.2
519.299	-28.5
519.501	12.46
519.704	-12.12
519.906	96.43
520.109	147.62
520.311	32.94
520.514	174.25
520.716	-20.31
520.918	-69.46
521.121	137.38
521.323	-61.27
521.525	-5.97
521.728	170.15
521.93	110.76
522.132	80.04
522.335	55.47
522.537	20.65
522.739	34.99
522.941	34.99
523.144	41.13
523.346	30.89
523.548	75.95
523.75	86.19
523.952	106.67
524.155	49.32
524.357	-3.93
524.559	47.27
524.761	-1.88
524.963	98.47
525.165	43.18
525.368	14.51
525.57	63.66
525.772	90.28
525.974	10.41
526.176	57.51
526.378	90.28
526.58	121
526.782	114.86
526.984	84.14
527.186	96.43
527.388	84.14
527.59	127.14
527.792	110.76
527.994	118.95
528.196	112.81
528.398	39.08
528.6	84.14
528.802	14.51
529.004	53.42
529.206	49.32
529.408	112.81
529.609	86.19
529.811	30.89
530.013	86.19
530.215	129.19
530.417	0.17
530.619	55.47
530.821	149.67
531.022	14.51
531.224	-32.6
531.426	121
531.628	6.31
531.829	-116.56
532.031	102.57
532.233	-20.31
532.435	32.94
532.636	22.7
532.838	135.34
533.04	2.22
533.241	-40.79
533.443	129.19
533.645	86.19
533.846	-5.97
534.048	55.47
534.25	121
534.451	65.71
534.653	-57.17
534.855	104.62
535.056	-42.84
535.258	-16.21
535.459	121
535.661	-10.07
535.862	112.81
536.064	-28.5
536.265	34.99
536.467	47.27
536.668	6.31
536.87	123.05
537.071	4.27
537.273	57.51
537.474	49.32
537.676	61.61
537.877	16.55
538.078	-8.02
538.28	34.99
538.481	16.55
538.683	86.19
538.884	-20.31
539.085	84.14
539.287	47.27
539.488	65.71
539.689	-16.21
539.891	75.95
540.092	18.6
540.293	-30.55
540.495	30.89
540.696	45.23
540.897	-77.65
541.098	41.13
541.3	53.42
541.501	26.79
541.702	82.09
541.903	63.66
542.104	80.04
542.306	63.66
542.507	-26.45
542.708	55.47
542.909	-18.26
543.11	37.03
543.311	14.51
543.512	22.7
543.713	0.17
543.915	-34.64
544.116	51.37
544.317	49.32
544.518	96.43
544.719	16.55
544.92	67.75
545.121	43.18
545.322	-65.36
545.523	-104.28
545.724	108.71
545.925	84.14
546.126	14.51
546.327	100.52
546.528	102.57
546.729	67.75
546.929	-71.51
547.13	67.75
547.331	133.29
547.532	10.41
547.733	164.01
547.934	-16.21
548.135	90.28
548.336	65.71
548.536	-28.5
548.737	24.75
548.938	28.84
549.139	14.51
549.34	67.75
549.54	8.36
549.741	34.99
549.942	-12.12
550.143	-290.64
550.343	112.81
550.544	90.28
550.745	125.1
550.945	110.76
551.146	55.47
551.347	4.27
551.547	63.66
551.748	90.28
551.949	-51.03
552.149	114.86
552.35	-57.17
552.551	39.08
552.751	-67.41
552.952	-12.12
553.152	73.9
553.353	-102.23
553.553	20.65
553.754	112.81
553.954	2.22
554.155	41.13
554.356	41.13
554.556	77.99
554.756	-53.08
554.957	75.95
555.157	71.85
555.358	164.01
555.558	131.24
555.759	102.57
555.959	-48.98
556.159	49.32
556.36	129.19
556.56	14.51
556.761	2.22
556.961	12.46
557.161	-38.74
557.362	84.14
557.562	-10.07
557.762	86.19
557.963	94.38
558.163	59.56
558.363	45.23
558.563	37.03
558.764	55.47
558.964	116.9
559.164	-5.97
559.364	151.72
559.565	-38.74
559.765	30.89
559.965	-14.17
560.165	32.94
560.365	43.18
560.565	53.42
560.766	57.51
560.966	73.9
561.166	-48.98
561.366	82.09
561.566	16.55
561.766	69.8
561.966	10.41
562.166	151.72
562.366	104.62
562.566	43.18
562.766	47.27
562.966	-36.69
563.166	67.75
563.366	43.18
563.566	59.56
563.766	57.51
563.966	65.71
564.166	-8.02
564.366	53.42
564.566	80.04
564.766	131.24
564.966	-44.88
565.166	55.47
565.366	45.23
565.565	-46.93
565.765	49.32
565.965	-65.36
566.165	153.77
566.365	133.29
566.565	37.03
566.764	26.79
566.964	49.32
567.164	26.79
567.364	-71.51
567.564	108.71
567.763	-5.97
567.963	-8.02
568.163	104.62
568.362	125.1
568.562	104.62
568.762	37.03
568.961	84.14
569.161	59.56
569.361	49.32
569.56	123.05
569.76	-18.26
569.96	157.86
570.159	-91.99
570.359	-96.08
570.558	86.19
570.758	51.37
570.958	-12.12
571.157	114.86
571.357	137.38
571.556	-20.31
571.756	57.51
571.955	4.27
572.155	-44.88
572.354	61.61
572.554	-16.21
572.753	4.27
572.953	88.23
573.152	137.38
573.351	-67.41
573.551	41.13
573.75	-38.74
573.95	51.37
574.149	24.75
574.348	10.41
574.548	32.94
574.747	-71.51
574.946	41.13
575.146	-53.08
575.345	86.19
575.544	-143.19
575.744	14.51
575.943	-59.22
576.142	67.75
576.342	-10.07
576.541	135.34
576.74	49.32
576.939	123.05
577.138	145.58
577.338	80.04
577.537	-57.17
577.736	-59.22
577.935	24.75
578.134	37.03
578.333	10.41
578.533	100.52
578.732	129.19
578.931	-61.27
579.13	-38.74
579.329	22.7
579.528	-40.79
579.727	67.75
579.926	-63.32
580.125	84.14
580.324	51.37
580.523	57.51
580.722	-18.26
580.921	-53.08
581.12	34.99
581.319	32.94
581.518	65.71
581.717	57.51
581.916	73.9
582.115	-18.26
582.314	32.94
582.513	-40.79
582.712	34.99
582.911	32.94
583.109	-44.88
583.308	14.51
583.507	6.31
583.706	98.47
583.905	-22.36
584.104	-16.21
584.302	-77.65
584.501	55.47
584.7	-18.26
584.899	2.22
585.098	34.99
585.296	69.8
585.495	-24.4
585.694	16.55
585.892	32.94
586.091	-40.79
586.29	22.7
586.488	-8.02
586.687	84.14
586.886	-1.88
587.084	16.55
587.283	-5.97
587.482	24.75
587.68	-40.79
587.879	100.52
588.077	37.03
588.276	-59.22
588.475	-14.17
588.673	18.6
588.872	53.42
589.07	139.43
589.269	32.94
589.467	139.43
589.666	-100.18
589.864	90.28
590.063	-16.21
590.261	-26.45
590.46	96.43
590.658	24.75
590.857	-85.84
591.055	34.99
591.253	-40.79
591.452	-18.26
591.65	16.55
591.848	104.62
592.047	84.14
592.245	6.31
592.444	6.31
592.642	-87.89
592.84	41.13
593.038	10.41
593.237	-26.45
593.435	20.65
593.633	147.62
593.832	-73.56
594.03	41.13
594.228	-77.65
594.426	69.8
594.624	-14.17
594.823	12.46
595.021	110.76
595.219	45.23
595.417	39.08
595.615	12.46
595.813	61.61
596.012	67.75
596.21	4.27
596.408	2.22
596.606	51.37
596.804	147.62
597.002	-18.26
597.2	121
597.398	34.99
597.596	4.27
597.794	75.95
597.992	-1.88
598.19	6.31
598.388	59.56
598.586	-28.5
598.784	34.99
598.982	-22.36
599.18	186.54
599.378	92.33
599.576	53.42
599.774	18.6
599.972	80.04
600.17	4.27
600.368	51.37
600.565	12.46
600.763	88.23
600.961	55.47
601.159	127.14
601.357	41.13
601.555	53.42
601.752	53.42
601.95	43.18
602.148	32.94
602.346	-24.4
602.544	164.01
602.741	-114.52
602.939	-65.36
603.137	41.13
603.334	-108.37
603.532	30.89
603.73	22.7
603.927	161.96
604.125	2.22
604.323	-48.98
604.52	57.51
604.718	-26.45
604.916	65.71
605.113	-135
605.311	61.61
605.508	34.99
605.706	108.71
605.904	39.08
606.101	-24.4
606.299	30.89
606.496	41.13
606.694	84.14
606.891	24.75
607.089	-53.08
607.286	12.46
607.484	20.65
607.681	20.65
607.879	123.05
608.076	73.9
608.273	41.13
608.471	112.81
608.668	-106.32
608.866	-59.22
609.063	-139.09
609.26	-44.88
609.458	-87.89
609.655	26.79
609.852	-57.17
610.05	-10.07
610.247	-46.93
610.444	88.23
610.642	8.36
610.839	-73.56
611.036	26.79
611.233	2.22
611.431	-96.08
611.628	-38.74
611.825	10.41
612.022	-3.93
612.22	90.28
612.417	-28.5
612.614	-32.6
612.811	-8.02
613.008	32.94
613.205	6.31
613.402	28.84
613.6	28.84
613.797	77.99
613.994	-71.51
614.191	30.89
614.388	77.99
614.585	-79.7
614.782	39.08
614.979	151.72
615.176	-81.75
615.373	-26.45
615.57	112.81
615.767	-59.22
615.964	92.33
616.161	-124.76
616.358	26.79
616.555	-48.98
616.752	-12.12
616.949	63.66
617.146	-5.97
617.343	59.56
617.539	75.95
617.736	71.85
617.933	6.31
618.13	41.13
618.327	100.52
618.524	24.75
618.721	-44.88
618.917	-42.84
619.114	28.84
619.311	73.9
619.508	-38.74
619.704	28.84
619.901	67.75
620.098	-3.93
620.295	53.42
620.491	-16.21
620.688	6.31
620.885	8.36
621.081	-12.12
621.278	34.99
621.475	2.22
621.671	-46.93
621.868	-59.22
622.065	-63.32
622.261	53.42
622.458	-1.88
622.655	92.33
622.851	-22.36
623.048	59.56
623.244	-16.21
623.441	73.9
623.637	145.58
623.834	-65.36
624.03	-71.51
624.227	57.51
624.423	-10.07
624.62	14.51
624.816	77.99
625.013	53.42
625.209	-44.88
625.406	-5.97
625.602	-120.66
625.798	-14.17
625.995	-122.71
626.191	-8.02
626.388	24.75
626.584	141.48
626.78	-53.08
626.977	-104.28
627.173	57.51
627.369	96.43
627.566	141.48
627.762	-87.89
627.958	24.75
628.154	-24.4
628.351	4.27
628.547	-24.4
628.743	-5.97
628.939	73.9
629.136	-42.84
629.332	2.22
629.528	127.14
629.724	24.75
629.92	77.99
630.116	65.71
630.313	-20.31
630.509	14.51
630.705	112.81
630.901	30.89
631.097	12.46
631.293	-61.27
631.489	-20.31
631.685	-44.88
631.881	16.55
632.077	28.84
632.273	6.31
632.469	86.19
632.665	37.03
632.861	34.99
633.057	4.27
633.253	0.17
633.449	6.31
633.645	-26.45
633.841	112.81
634.037	-59.22
634.233	30.89
634.429	135.34
634.625	-44.88
634.821	77.99
635.017	16.55
635.212	-114.52
635.408	-20.31
635.604	24.75
635.8	-10.07
635.996	-46.93
636.191	45.23
636.387	-71.51
636.583	8.36
636.779	16.55
636.975	59.56
637.17	30.89
637.366	45.23
637.562	14.51
637.757	0.17
637.953	-61.27
638.149	-147.28
638.345	12.46
638.54	4.27
638.736	-55.12
638.931	14.51
639.127	6.31
639.323	26.79
639.518	-10.07
639.714	-59.22
639.909	-24.4
640.105	73.9
640.301	-30.55
640.496	16.55
640.692	96.43
640.887	6.31
641.083	86.19
641.278	75.95
641.474	18.6
641.669	12.46
641.865	-40.79
642.06	96.43
642.256	-116.56
642.451	61.61
642.646	0.17
642.842	67.75
643.037	41.13
643.233	114.86
643.428	14.51
643.623	-51.03
643.819	-112.47
644.014	34.99
644.209	67.75
644.405	-38.74
644.6	28.84
644.795	34.99
644.99	32.94
645.186	67.75
645.381	12.46
645.576	-3.93
645.771	4.27
645.967	-57.17
646.162	16.55
646.357	16.55
646.552	123.05
646.747	104.62
646.943	-34.64
647.138	24.75
647.333	82.09
647.528	-292.69
647.723	-8.02
647.918	-42.84
648.113	24.75
648.308	53.42
648.504	-26.45
648.699	-28.5
648.894	69.8
649.089	-16.21
649.284	-118.61
649.479	16.55
649.674	-16.21
649.869	94.38
650.064	-3.93
650.259	26.79
650.454	-30.55
650.649	-46.93
650.844	37.03
651.038	-55.12
651.233	32.94
651.428	47.27
651.623	16.55
651.818	-79.7
652.013	0.17
652.208	41.13
652.403	-24.4
652.597	14.51
652.792	-130.9
652.987	213.16
653.182	18.6
653.377	57.51
653.571	-18.26
653.766	-28.5
653.961	-12.12
654.156	16.55
654.35	-75.6
654.545	-16.21
654.74	88.23
654.935	51.37
655.129	123.05
655.324	116.9
655.519	49.32
655.713	-3.93
655.908	-34.64
656.102	90.28
656.297	2.22
656.492	75.95
656.686	-5.97
656.881	100.52
657.075	10.41
657.27	53.42
657.464	-51.03
657.659	153.77
657.854	-73.56
658.048	102.57
658.243	82.09
658.437	6.31
658.631	-44.88
658.826	84.14
659.02	12.46
659.215	8.36
659.409	45.23
659.604	6.31
659.798	-16.21
659.992	-69.46
660.187	-57.17
660.381	-5.97
660.576	-69.46
660.77	116.9
660.964	-65.36
661.159	43.18
661.353	125.1
661.547	53.42
661.742	114.86
661.936	-40.79
662.13	-1.88
662.324	47.27
662.519	69.8
662.713	-5.97
662.907	-22.36
663.101	53.42
663.295	34.99
663.49	18.6
663.684	26.79
663.878	-79.7
664.072	102.57
664.266	43.18
664.46	-1.88
664.654	77.99
664.849	41.13
665.043	22.7
665.237	22.7
665.431	28.84
665.625	-3.93
665.819	110.76
666.013	71.85
666.207	-79.7
666.401	88.23
666.595	-28.5
666.789	-18.26
666.983	10.41
667.177	84.14
667.371	4.27
667.565	49.32
667.759	-26.45
667.953	-147.28
668.147	20.65
668.34	32.94
668.534	-3.93
668.728	4.27
668.922	-65.36
669.116	102.57
669.31	28.84
669.504	-126.8
669.697	28.84
669.891	-1.88
670.085	43.18
670.279	51.37
670.473	55.47
670.666	14.51
670.86	18.6
671.054	92.33
671.248	92.33
671.441	0.17
671.635	180.39
671.829	12.46
672.022	-36.69
672.216	4.27
672.41	82.09
672.603	-71.51
672.797	-10.07
672.99	45.23
673.184	26.79
673.378	-16.21
673.571	133.29
673.765	47.27
673.958	-30.55
674.152	-61.27
674.345	73.9
674.539	-48.98
674.733	-42.84
674.926	71.85
675.12	86.19
675.313	-14.17
675.506	73.9
675.7	30.89
675.893	90.28
676.087	153.77
676.28	61.61
676.474	96.43
676.667	108.71
676.86	-40.79
677.054	28.84
677.247	-8.02
677.441	41.13
677.634	4.27
677.827	8.36
678.02	-1.88
678.214	102.57
678.407	-61.27
678.6	69.8
678.794	57.51
678.987	-12.12
679.18	-40.79
679.373	-20.31
679.567	114.86
679.76	2.22
679.953	-32.6
680.146	41.13
680.339	98.47
680.533	67.75
680.726	10.41
680.919	12.46
681.112	-18.26
681.305	-18.26
681.498	-34.64
681.691	-59.22
681.884	-18.26
682.077	32.94
682.271	-83.8
682.464	90.28
682.657	77.99
682.85	-3.93
683.043	41.13
683.236	53.42
683.429	-69.46
683.622	-192.34
683.815	18.6
684.008	8.36
684.201	26.79
684.393	8.36
684.586	73.9
684.779	96.43
684.972	41.13
685.165	-114.52
685.358	-48.98
685.551	84.14
685.744	49.32
685.937	18.6
686.129	98.47
686.322	53.42
686.515	55.47
686.708	-75.6
686.901	-30.55
687.093	-30.55
687.286	14.51
687.479	92.33
687.672	16.55
687.864	28.84
688.057	75.95
688.25	-22.36
688.442	47.27
688.635	34.99
688.828	-63.32
689.02	61.61
689.213	69.8
689.406	-73.56
689.598	-63.32
689.791	28.84
689.984	-18.26
690.176	86.19
690.369	-28.5
690.561	14.51
690.754	-96.08
690.946	14.51
691.139	51.37
691.331	-51.03
691.524	51.37
691.716	12.46
691.909	8.36
692.101	-57.17
692.294	14.51
692.486	-42.84
692.679	32.94
692.871	-85.84
693.063	41.13
693.256	90.28
693.448	47.27
693.641	-61.27
693.833	59.56
694.025	-8.02
694.218	-5.97
694.41	63.66
694.602	110.76
694.795	4444.26
694.987	10510.35
695.179	16725.93
695.372	13045.73
695.564	9523.23
695.756	7475.26
695.948	3403.89
696.14	1687.7
696.333	262.31
696.525	45.23
696.717	86.19
696.909	34.99
697.101	102.57
697.294	22.7
697.486	-10.07
697.678	-3.93
697.87	22.7
698.062	-55.12
698.254	-12.12
698.446	18.6
698.638	22.7
698.83	18.6
699.022	20.65
699.215	-32.6
699.407	127.14
699.599	-28.5
699.791	-5.97
699.983	84.14
700.175	32.94
700.367	102.57
700.558	71.85
700.75	-51.03
700.942	59.56
701.134	4.27
701.326	102.57
701.518	-18.26
701.71	63.66
701.902	-112.47
702.094	-87.89
702.286	-149.33
702.477	133.29
702.669	104.62
702.861	-57.17
703.053	37.03
703.245	39.08
703.436	22.7
703.628	63.66
703.82	-42.84
704.012	65.71
704.203	-61.27
704.395	6.31
704.587	14.51
704.779	98.47
704.97	3661.94
705.162	10391.56
705.354	11925.49
705.545	11407.36
705.737	8701.99
705.929	4950.11
706.12	3424.37
706.312	643.23
706.503	77.99
706.695	104.62
706.887	65.71
707.078	32.94
707.27	-8.02
707.461	26.79
707.653	55.47
707.844	94.38
708.036	75.95
708.227	47.27
708.419	-102.23
708.61	-26.45
708.802	4.27
708.993	-1.88
709.185	39.08
709.376	69.8
709.567	-14.17
709.759	65.71
709.95	110.76
710.141	61.61
710.333	45.23
710.524	-26.45
710.716	-69.46
710.907	49.32
711.098	-75.6
711.289	82.09
711.481	45.23
711.672	82.09
711.863	-42.84
712.055	106.67
712.246	-28.5
712.437	-14.17
712.628	-16.21
712.82	-71.51
713.011	-14.17
713.202	96.43
713.393	-100.18
713.584	24.75
713.775	-16.21
713.967	43.18
714.158	98.47
714.349	41.13
714.54	-57.17
714.731	84.14
714.922	20.65
715.113	77.99
715.304	8.36
715.495	102.57
715.686	8.36
715.877	80.04
716.068	37.03
716.259	-10.07
716.45	-3.93
716.641	90.28
716.832	-65.36
717.023	110.76
717.214	-8.02
717.405	-67.41
717.596	102.57
717.787	28.84
717.978	34.99
718.169	-12.12
718.36	-18.26
718.55	143.53
718.741	-61.27
718.932	34.99
719.123	24.75
719.314	-77.65
719.505	-30.55
719.695	80.04
719.886	59.56
720.077	-3.93
720.268	14.51
720.458	86.19
720.649	6.31
720.84	106.67
721.031	-73.56
721.221	-14.17
721.412	90.28
721.603	39.08
721.793	-12.12
721.984	-3.93
722.175	12.46
722.365	0.17
722.556	84.14
722.746	-10.07
722.937	49.32
723.128	-71.51
723.318	59.56
723.509	88.23
723.699	4.27
723.89	147.62
724.08	-28.5
724.271	116.9
724.461	-5.97
724.652	49.32
724.842	-51.03
725.033	49.32
725.223	-20.31
725.414	47.27
725.604	-24.4
725.794	43.18
725.985	102.57
726.175	34.99
726.366	82.09
726.556	71.85
726.746	71.85
726.937	73.9
727.127	8.36
727.317	-32.6
727.508	45.23
727.698	-38.74
727.888	6.31
728.079	65.71
728.269	-16.21
728.459	-69.46
728.649	-124.76
728.84	16.55
729.03	37.03
729.22	-73.56
729.41	88.23
729.6	114.86
729.791	-67.41
729.981	-22.36
730.171	-32.6
730.361	100.52
730.551	4.27
730.741	71.85
730.931	43.18
731.121	90.28
731.311	2.22
731.502	96.43
731.692	-48.98
731.882	-26.45
732.072	14.51
732.262	39.08
732.452	-44.88
732.642	125.1
732.832	-34.64
733.022	-20.31
733.212	39.08
733.402	12.46
733.591	-91.99
733.781	8.36
733.971	39.08
734.161	20.65
734.351	-42.84
734.541	108.71
734.731	90.28
734.921	-63.32
735.111	4.27
735.3	-5.97
735.49	96.43
735.68	10.41
735.87	-26.45
736.06	0.17
736.249	196.78
736.439	444.58
736.629	6856.77
736.819	13674.46
737.008	20989.8
737.198	21639.01
737.388	14960.58
737.577	12199.92
737.767	9435.16
737.957	5136.48
738.146	3592.31
738.336	540.83
738.526	209.06
738.715	82.09
738.905	-46.93
739.094	59.56
739.284	49.32
739.474	43.18
739.663	-14.17
739.853	77.99
740.042	43.18
740.232	61.61
740.421	96.43
740.611	73.9
740.8	55.47
740.99	8.36
741.179	26.79
741.369	-10.07
741.558	110.76
741.748	77.99
741.937	14.51
742.126	51.37
742.316	63.66
742.505	4.27
742.695	100.52
742.884	-16.21
743.073	41.13
743.263	-5.97
743.452	28.84
743.641	161.96
743.831	-153.43
744.02	63.66
744.209	0.17
744.398	65.71
744.588	-26.45
744.777	-18.26
744.966	-36.69
745.155	143.53
745.345	20.65
745.534	118.95
745.723	141.48
745.912	73.9
746.101	43.18
746.29	-18.26
746.48	94.38
746.669	112.81
746.858	65.71
747.047	-83.8
747.236	-145.24
747.425	12.46
747.614	67.75
747.803	80.04
747.992	75.95
748.181	94.38
748.37	112.81
748.559	121
748.748	4106.35
748.937	8988.71
749.126	12447.72
749.315	14079.96
749.504	14260.18
749.693	12771.3
749.882	17221.54
750.071	20244.34
750.26	20522.87
750.449	19228.55
750.638	15816.63
750.826	10819.59
751.015	8933.41
751.204	4995.17
751.393	3186.81
751.582	827.55
751.771	323.75
751.959	-28.5
752.148	45.23
752.337	47.27
752.526	63.66
752.714	-5.97
752.903	-32.6
753.092	61.61
753.281	75.95
753.469	106.67
753.658	118.95
753.847	10.41
754.035	-28.5
754.224	-12.12
754.413	100.52
754.601	-38.74
754.79	164.01
754.979	-55.12
755.167	34.99
755.356	-1.88
755.544	-8.02
755.733	69.8
755.921	82.09
756.11	8.36
756.298	-14.17
756.487	2.22
756.675	127.14
756.864	55.47
757.052	53.42
757.241	-46.93
757.429	8.36
757.618	28.84
757.806	108.71
757.995	61.61
758.183	32.94
758.371	8.36
758.56	-36.69
758.748	-130.9
758.937	-48.98
759.125	16.55
759.313	4.27
759.502	75.95
759.69	37.03
759.878	2.22
760.066	-26.45
760.255	0.17
760.443	90.28
760.631	100.52
760.819	-12.12
761.008	12.46
761.196	184.49
761.384	342.18
761.572	3571.83
761.761	8028.21
761.949	18126.74
762.137	32286.4
762.325	37762.67
762.513	34279.07
762.701	32665.27
762.889	24192.83
763.077	18331.54
763.266	14553.04
763.454	10162.19
763.642	6135.89
763.83	4407.4
764.018	1333.4
764.206	510.11
764.394	237.74
764.582	47.27
764.77	57.51
764.958	114.86
765.146	55.47
765.334	-32.6
765.522	-30.55
765.71	37.03
765.898	77.99
766.085	61.61
766.273	94.38
766.461	100.52
766.649	47.27
766.837	51.37
767.025	-32.6
767.213	-55.12
767.401	69.8
767.588	-32.6
767.776	112.81
767.964	-26.45
768.152	28.84
768.339	22.7
768.527	-75.6
768.715	-85.84
768.903	51.37
769.09	-40.79
769.278	49.32
769.466	6.31
769.654	6.31
769.841	22.7
770.029	67.75
770.217	49.32
770.404	-26.45
770.592	102.57
770.779	1239.19
770.967	8319.02
771.155	15566.78
771.342	18546.58
771.53	12916.71
771.717	10567.69
771.905	7544.89
772.092	4075.63
772.28	1597.59
772.467	1200.28
772.655	75.95
772.842	-63.32
773.03	86.19
773.217	39.08
773.405	73.9
773.592	137.38
773.78	86.19
773.967	-46.93
774.154	-48.98
774.342	47.27
774.529	65.71
774.717	-94.04
774.904	-75.6
775.091	75.95
775.279	157.86
775.466	57.51
775.653	-5.97
775.841	108.71
776.028	104.62
776.215	71.85
776.402	49.32
776.59	30.89
776.777	8.36
776.964	47.27
777.151	-83.8
777.338	73.9
777.526	102.57
777.713	6.31
777.9	-22.36
778.087	2.22
778.274	2.22
778.461	77.99
778.649	22.7
778.836	14.51
779.023	-5.97
779.21	30.89
779.397	172.2
779.584	73.9
779.771	0.17
779.958	-106.32
780.145	96.43
780.332	96.43
780.519	-1.88
780.706	-5.97
780.893	84.14
781.08	-87.89
781.267	-28.5
781.454	39.08
781.641	28.84
781.828	80.04
782.015	98.47
782.202	75.95
782.388	86.19
782.575	-26.45
782.762	-36.69
782.949	-1.88
783.136	37.03
783.323	-38.74
783.509	88.23
783.696	41.13
783.883	-5.97
784.07	-71.51
784.257	49.32
784.443	32.94
784.63	51.37
784.817	-10.07
785.004	-26.45
785.19	71.85
785.377	-65.36
785.564	86.19
785.75	82.09
785.937	104.62
786.124	-8.02
786.31	-26.45
786.497	8.36
786.683	84.14
786.87	86.19
787.057	110.76
787.243	123.05
787.43	20.65
787.616	59.56
787.803	41.13
787.989	92.33
788.176	-55.12
788.362	61.61
788.549	-65.36
788.735	57.51
788.922	12.46
789.108	12.46
789.295	26.79
789.481	37.03
789.668	14.51
789.854	28.84
790.04	18.6
790.227	-55.12
790.413	-10.07
790.599	53.42
790.786	-106.32
790.972	-1.88
791.158	14.51
791.345	-46.93
791.531	51.37
791.717	43.18
791.904	59.56
792.09	104.62
792.276	22.7
792.462	49.32
792.649	18.6
792.835	51.37
793.021	30.89
793.207	123.05
793.393	645.28
793.58	5730.39
793.766	11018.24
793.952	10117.14
794.138	9502.75
794.324	6506.57
794.51	2969.73
794.696	1034.39
794.882	553.12
795.069	129.19
795.255	102.57
795.441	45.23
795.627	88.23
795.813	-20.31
795.999	-22.36
796.185	47.27
796.371	-18.26
796.557	94.38
796.743	0.17
796.929	49.32
797.115	125.1
797.3	2.22
797.486	137.38
797.672	155.82
797.858	127.14
798.044	-59.22
798.23	-53.08
798.416	59.56
798.602	104.62
798.788	-28.5
798.973	-53.08
799.159	32.94
799.345	377
799.531	1880.21
799.717	2939.01
799.902	5095.52
800.088	7669.81
800.274	9904.15
800.46	15310.79
800.645	16357.3
800.831	10833.93
801.017	6252.62
801.202	5896.27
801.388	2273.42
801.574	741.54
801.759	237.74
801.945	18.6
802.131	98.47
802.316	41.13
802.502	-3.93
802.687	-14.17
802.873	92.33
803.058	24.75
803.244	-1.88
803.43	22.7
803.615	39.08
803.801	-48.98
803.986	10.41
804.172	24.75
804.357	-1.88
804.543	-10.07
804.728	86.19
804.913	88.23
805.099	22.7
805.284	-55.12
805.47	22.7
805.655	67.75
805.84	43.18
806.026	75.95
806.211	12.46
806.397	84.14
806.582	-69.46
806.767	0.17
806.953	94.38
807.138	51.37
807.323	75.95
807.508	18.6
807.694	49.32
807.879	-10.07
808.064	-28.5
808.249	96.43
808.435	82.09
808.62	161.96
808.805	241.83
808.99	4114.54
809.175	9590.81
809.361	14307.28
809.546	16494.51
809.731	19427.2
809.916	17622.94
810.101	17090.47
810.286	22681.42
810.471	32222.91
810.656	32302.78
810.841	28786.42
811.026	30142.17
811.211	25347.88
811.396	18679.69
811.581	15157.19
811.766	12908.52
811.951	9367.58
812.136	5466.2
812.321	4270.19
812.506	2609.28
812.691	850.08
812.876	168.1
813.061	252.07
813.246	207.02
813.431	104.62
813.616	22.7
813.801	114.86
813.986	145.58
814.17	14.51
814.355	12.46
814.54	47.27
814.725	141.48
814.91	-28.5
815.094	26.79
815.279	-20.31
815.464	118.95
815.649	82.09
815.833	69.8
816.018	92.33
816.203	-18.26
816.388	8.36
816.572	30.89
816.757	-32.6
816.942	20.65
817.126	-14.17
817.311	14.51
817.496	104.62
817.68	82.09
817.865	37.03
818.049	28.84
818.234	51.37
818.419	28.84
818.603	59.56
818.788	-5.97
818.972	-10.07
819.157	32.94
819.341	-16.21
819.526	24.75
819.71	82.09
819.895	-1.88
820.079	28.84
820.264	-34.64
820.448	123.05
820.633	-46.93
820.817	4.27
821.001	18.6
821.186	-59.22
821.37	47.27
821.554	-77.65
821.739	-30.55
821.923	-10.07
822.108	-1.88
822.292	-34.64
822.476	127.14
822.66	47.27
822.845	18.6
823.029	57.51
823.213	47.27
823.398	57.51
823.582	18.6
823.766	63.66
823.95	-40.79
824.134	14.51
824.319	14.51
824.503	-46.93
824.687	75.95
824.871	73.9
825.055	24.75
825.239	20.65
825.423	43.18
825.608	1994.89
825.792	2185.35
825.976	2293.9
826.16	1943.69
826.344	1108.12
826.528	100.52
826.712	18.6
826.896	-77.65
827.08	24.75
827.264	125.1
827.448	32.94
827.632	-44.88
827.816	84.14
828	57.51
828.184	-32.6
828.368	86.19
828.552	153.77
828.736	10.41
828.919	-20.31
829.103	43.18
829.287	108.71
829.471	14.51
829.655	-24.4
829.839	71.85
830.023	69.8
830.206	73.9
830.39	-1.88
830.574	47.27
830.758	-8.02
830.941	39.08
831.125	10.41
831.309	-3.93
831.493	-10.07
831.676	-40.79
831.86	-42.84
832.044	34.99
832.227	67.75
832.411	-3.93
832.595	73.9
832.778	-22.36
832.962	71.85
833.146	82.09
833.329	10.41
833.513	12.46
833.696	67.75
833.88	-28.5
834.064	57.51
834.247	139.43
834.431	-5.97
834.614	20.65
834.798	-100.18
834.981	-24.4
835.165	-1.88
835.348	26.79
835.532	-20.31
835.715	-34.64
835.898	55.47
836.082	41.13
836.265	-98.13
836.449	69.8
836.632	-30.55
836.815	90.28
836.999	49.32
837.182	-61.27
837.365	32.94
837.549	24.75
837.732	-26.45
837.915	88.23
838.099	-30.55
838.282	75.95
838.465	4.27
838.648	-40.79
838.832	8.36
839.015	-75.6
839.198	69.8
839.381	49.32
839.565	-20.31
839.748	65.71
839.931	1929.36
840.114	6381.64
840.297	9324.57
840.48	6725.7
840.663	7133.25
840.847	6438.98
841.03	4175.98
841.213	1865.87
841.396	3254.39
841.579	5496.92
841.762	9256.99
841.945	10283.02
842.128	10203.15
842.311	9308.19
842.494	6199.37
842.677	2222.22
842.86	772.25
843.043	385.19
843.226	286.89
843.409	-24.4
843.592	-12.12
843.775	90.28
843.958	57.51
844.141	67.75
844.323	16.55
844.506	57.51
844.689	57.51
844.872	57.51
845.055	-106.32
845.238	67.75
845.42	-16.21
845.603	100.52
845.786	57.51
845.969	-18.26
846.152	-22.36
846.334	59.56
846.517	-10.07
846.7	155.82
846.883	92.33
847.065	6.31
847.248	-59.22
847.431	37.03
847.613	170.15
847.796	88.23
847.979	65.71
848.161	100.52
848.344	57.51
848.526	-14.17
848.709	-34.64
848.892	8.36
849.074	-14.17
849.257	73.9
849.439	127.14
849.622	-53.08
849.804	51.37
849.987	41.13
850.169	37.03
850.352	16.55
850.534	-91.99
850.717	-16.21
850.899	12.46
851.082	67.75
851.264	4.27
851.446	106.67
851.629	57.51
851.811	213.16
851.994	14.51
852.176	61.61
852.358	30.89
852.541	-57.17
852.723	34.99
852.905	49.32
853.088	41.13
853.27	55.47
853.452	-38.74
853.635	-67.41
853.817	32.94
853.999	41.13
854.181	14.51
854.363	110.76
854.546	30.89
854.728	57.51
854.91	63.66
855.092	98.47
855.274	49.32
855.457	32.94
855.639	51.37
855.821	-10.07
856.003	2.22
856.185	-34.64
856.367	-28.5
856.549	59.56
856.731	82.09
856.913	98.47
857.095	71.85
857.277	-10.07
857.459	6.31
857.641	67.75
857.823	-87.89
858.005	-18.26
858.187	-12.12
858.369	10.41
858.551	-65.36
858.733	10.41
858.915	92.33
859.097	16.55
859.279	-28.5
859.461	80.04
859.643	-10.07
859.824	-26.45
860.006	-91.99
860.188	6.31
860.37	12.46
860.552	-59.22
860.734	-34.64
860.915	6.31
861.097	-30.55
861.279	118.95
861.461	12.46
861.642	-1.88
861.824	-38.74
862.006	-8.02
862.188	80.04
862.369	82.09
862.551	10.41
862.733	-63.32
862.914	-5.97
863.096	80.04
863.278	24.75
863.459	127.14
863.641	-1.88
863.822	-69.46
864.004	47.27
864.185	127.14
864.367	8.36
864.549	-20.31
864.73	-20.31
864.912	55.47
865.093	26.79
865.275	-3.93
865.456	108.71
865.638	77.99
865.819	63.66
866.001	8.36
866.182	73.9
866.363	71.85
866.545	-55.12
866.726	47.27
866.908	-3.93
867.089	-8.02
867.27	18.6
867.452	57.51
867.633	-5.97
867.814	34.99
867.996	57.51
868.177	-5.97
868.358	45.23
868.54	-87.89
868.721	34.99
868.902	131.24
869.083	-67.41
869.265	114.86
869.446	8.36
869.627	32.94
869.808	10.41
869.989	69.8
870.171	-12.12
870.352	-44.88
870.533	2.22
870.714	26.79
870.895	174.25
871.076	24.75
871.257	28.84
871.438	10.41
871.619	47.27
871.801	118.95
871.982	10.41
872.163	159.91
872.344	-38.74
872.525	-128.85
872.706	61.61
872.887	18.6
873.068	102.57
873.249	65.71
873.43	71.85
873.61	14.51
873.791	8.36
873.972	57.51
874.153	2.22
874.334	49.32
874.515	-5.97
874.696	-44.88
874.877	63.66
875.058	12.46
875.238	102.57
875.419	-46.93
875.6	-5.97
875.781	-40.79
875.962	47.27
876.142	-12.12
876.323	104.62
876.504	-108.37
876.685	-61.27
876.865	57.51
877.046	90.28
877.227	24.75
877.407	6.31
877.588	28.84
877.769	139.43
877.949	-3.93
878.13	-91.99
878.311	-96.08
878.491	49.32
878.672	125.1
878.853	43.18
879.033	133.29
879.214	4.27
879.394	4.27
879.575	75.95
879.755	-14.17
879.936	-20.31
880.116	-36.69
880.297	80.04
880.477	-32.6
880.658	-30.55
880.838	43.18
881.019	-42.84
881.199	-61.27
881.38	-16.21
881.56	-34.64
881.74	-34.64
881.921	69.8
882.101	155.82
882.281	18.6
882.462	4.27
882.642	2.22
882.822	-118.61
883.003	41.13
883.183	104.62
883.363	8.36
883.544	82.09
883.724	-98.13
883.904	69.8
884.084	-22.36
884.265	-91.99
884.445	14.51
884.625	4.27
884.805	51.37
884.985	-42.84
885.166	67.75
885.346	-3.93
885.526	49.32
885.706	49.32
885.886	14.51
886.066	102.57
886.246	-36.69
886.426	55.47
886.606	-10.07
886.787	-30.55
886.967	12.46
887.147	102.57
887.327	-3.93
887.507	26.79
887.687	123.05
887.867	-28.5
888.047	123.05
888.227	-5.97
888.406	37.03
888.586	-126.8
888.766	-51.03
888.946	-28.5
889.126	-42.84
889.306	45.23
889.486	39.08
889.666	-20.31
889.846	67.75
890.025	16.55
890.205	110.76
890.385	-1.88
890.565	12.46
890.745	4.27
890.924	18.6
891.104	53.42
891.284	121
891.464	59.56
891.643	94.38
891.823	-16.21
892.003	73.9
892.183	45.23
892.362	77.99
892.542	-55.12
892.722	43.18
892.901	-10.07
893.081	-12.12
893.26	39.08
893.44	-5.97
893.62	43.18
893.799	-16.21
893.979	41.13
894.158	-208.72
894.338	-3.93
894.517	32.94
894.697	77.99
894.877	43.18
895.056	14.51
895.236	18.6
895.415	-53.08
895.594	53.42
895.774	-51.03
895.953	18.6
896.133	-67.41
896.312	69.8
896.492	118.95
896.671	-120.66
896.85	-30.55
897.03	20.65
897.209	110.76
897.388	51.37
897.568	-1.88
897.747	-10.07
897.926	-24.4
898.106	30.89
898.285	75.95
898.464	-40.79
898.643	-87.89
898.823	41.13
899.002	-77.65
899.181	51.37
899.36	10.41
899.54	-53.08
899.719	-10.07
899.898	0.17
900.077	43.18
900.256	82.09
900.435	14.51
900.614	-38.74
900.794	39.08
900.973	104.62
901.152	14.51
901.331	159.91
901.51	-106.32
901.689	59.56
901.868	-3.93
902.047	82.09
902.226	24.75
902.405	41.13
902.584	41.13
902.763	-32.6
902.942	98.47
903.121	10.41
903.3	24.75
903.479	63.66
903.658	82.09
903.837	-16.21
904.015	90.28
904.194	55.47
904.373	22.7
904.552	-32.6
904.731	-73.56
904.91	63.66
905.089	41.13
905.267	69.8
905.446	-5.97
905.625	80.04
905.804	-12.12
905.982	-3.93
906.161	0.17
906.34	-112.47
906.519	20.65
906.697	71.85
906.876	92.33
907.055	80.04
907.233	61.61
907.412	34.99
907.591	-30.55
907.769	10.41
907.948	22.7
908.127	88.23
908.305	-28.5
908.484	108.71
908.662	14.51
908.841	63.66
909.019	-53.08
909.198	65.71
909.377	-3.93
909.555	14.51
909.734	172.2
909.912	71.85
910.09	39.08
910.269	82.09
910.447	45.23
910.626	67.75
910.804	-79.7
910.983	65.71
911.161	-30.55
911.339	55.47
911.518	114.86
911.696	-89.94
911.875	-36.69
912.053	73.9
912.231	-38.74
912.41	147.62
912.588	75.95
912.766	-48.98
912.944	-5.97
913.123	121
913.301	516.26
913.479	100.52
913.657	-65.36
913.836	143.53
914.014	12.46
914.192	0.17
914.37	57.51
914.548	-30.55
914.727	127.14
914.905	102.57
915.083	-38.74
915.261	98.47
915.439	22.7
915.617	104.62
915.795	-55.12
915.973	-34.64
916.151	96.43
916.329	8.36
916.508	-32.6
916.686	-34.64
916.864	-61.27
917.042	-40.79
917.22	92.33
917.398	47.27
917.575	39.08
917.753	-16.21
917.931	41.13
918.109	4.27
918.287	57.51
918.465	75.95
918.643	43.18
918.821	-53.08
918.999	14.51
919.177	41.13
919.354	139.43
919.532	67.75
919.71	-3.93
919.888	-10.07
920.066	63.66
920.243	-44.88
920.421	-8.02
920.599	77.99
920.777	39.08
920.954	2.22
921.132	61.61
921.31	30.89
921.488	8.36
921.665	-57.17
921.843	45.23
922.021	16.55
922.198	-3.93
922.376	108.71
922.553	121
922.731	104.62
922.909	-38.74
923.086	-38.74
923.264	-1.88
923.441	69.8
923.619	49.32
923.796	-24.4
923.974	6.31
924.152	-14.17
924.329	-14.17
924.507	-1.88
924.684	80.04
924.861	41.13
925.039	57.51
925.216	22.7
925.394	59.56
925.571	-18.26
925.749	61.61
925.926	4.27
926.103	-8.02
926.281	49.32
926.458	-22.36
926.635	18.6
926.813	-22.36
926.99	55.47
927.167	47.27
927.345	2.22
927.522	14.51
927.699	143.53
927.876	106.67
928.054	8.36
928.231	-104.28
928.408	-26.45
928.585	-100.18
928.763	-28.5
928.94	178.34
929.117	-16.21
929.294	-22.36
929.471	-18.26
929.648	-81.75
929.825	12.46
930.003	45.23
930.18	41.13
930.357	67.75
930.534	-51.03
930.711	4.27
930.888	67.75
931.065	-34.64
931.242	-34.64
931.419	0.17
931.596	-42.84
931.773	0.17
931.95	12.46
932.127	28.84
932.304	-12.12
932.481	133.29
932.658	-122.71
932.835	43.18
933.011	12.46
933.188	-30.55
933.365	41.13
933.542	86.19
933.719	10.41
933.896	63.66
934.073	-104.28
934.249	63.66
934.426	86.19
934.603	-44.88
934.78	-1.88
934.957	2.22
935.133	118.95
935.31	84.14
935.487	-26.45
935.664	39.08
935.84	-5.97
936.017	12.46
936.194	47.27
936.37	-81.75
936.547	-59.22
936.724	53.42
936.9	102.57
937.077	-1.88
937.253	114.86
937.43	-26.45
937.607	90.28
937.783	-22.36
937.96	-10.07
938.136	147.62
938.313	157.86
938.489	-100.18
938.666	57.51
938.842	41.13
939.019	-42.84
939.195	-53.08
939.372	34.99
939.548	73.9
939.725	24.75
939.901	-63.32
940.077	18.6
940.254	-34.64
940.43	-51.03
940.607	-79.7
940.783	18.6
940.959	-14.17
941.136	2.22
941.312	114.86
941.488	18.6
941.665	41.13
941.841	75.95
942.017	26.79
942.193	96.43
942.37	28.84
942.546	43.18
942.722	47.27
942.898	-12.12
943.074	-3.93
943.251	-1.88
943.427	-32.6
943.603	151.72
943.779	-36.69
943.955	20.65
944.131	-20.31
944.308	14.51
944.484	-12.12
944.66	53.42
944.836	-102.23
945.012	-87.89
945.188	2.22
945.364	114.86
945.54	4.27
945.716	-36.69
945.892	49.32
946.068	-1.88
946.244	-69.46
946.42	32.94
946.596	28.84
946.772	88.23
946.948	-71.51
947.124	75.95
947.3	41.13
947.475	202.92
947.651	-48.98
947.827	100.52
948.003	-34.64
948.179	63.66
948.355	-141.14
948.531	-26.45
948.706	18.6
948.882	-57.17
949.058	-157.52
949.234	39.08
949.409	10.41
949.585	-16.21
949.761	-55.12
949.937	2.22
950.112	12.46
950.288	116.9
950.464	100.52
950.639	45.23
950.815	77.99
950.991	67.75
951.166	59.56
951.342	51.37
951.518	118.95
951.693	16.55
951.869	-38.74
952.044	57.51
952.22	82.09
952.395	32.94
952.571	98.47
952.747	-1.88
952.922	28.84
953.098	92.33
953.273	22.7
953.448	-32.6
953.624	-59.22
953.799	88.23
953.975	-81.75
954.15	22.7
954.326	-14.17
954.501	-16.21
954.676	-32.6
954.852	-12.12
955.027	39.08
955.203	-73.56
955.378	43.18
955.553	51.37
955.729	-48.98
955.904	-147.28
956.079	69.8
956.254	84.14
956.43	28.84
956.605	118.95
956.78	-38.74
956.955	98.47
957.131	69.8
957.306	-16.21
957.481	-36.69
957.656	0.17
957.831	10.41
958.007	24.75
958.182	80.04
958.357	86.19
958.532	-8.02
958.707	43.18
958.882	20.65
959.057	-40.79
959.232	28.84
959.407	-20.31
959.582	121
959.757	141.48
959.932	16.55
960.107	86.19
960.282	-14.17
960.457	112.81
960.632	32.94
960.807	53.42
960.982	73.9
961.157	-12.12
961.332	92.33
961.507	-55.12
961.682	-38.74
961.857	-5.97
962.032	12.46
962.206	-130.9
962.381	-59.22
962.556	53.42
962.731	131.24
962.906	18.6
963.081	41.13
963.255	18.6
963.43	22.7
963.605	30.89
963.78	16.55
963.954	12.46
964.129	100.52
964.304	65.71
964.479	-1.88
964.653	-42.84
964.828	-22.36
965.003	28.84
965.177	112.81
965.352	-65.36
965.526	20.65
965.701	75.95
965.876	82.09
966.05	-63.32
966.225	55.47
966.399	-3.93
966.574	-104.28
966.748	-3.93
966.923	65.71
967.098	86.19
967.272	-71.51
967.446	12.46
967.621	16.55
967.795	53.42
967.97	-42.84
968.144	96.43
968.319	-14.17
968.493	-18.26
968.668	69.8
968.842	80.04
969.016	12.46
969.191	16.55
969.365	8.36
969.539	-3.93
969.714	12.46
969.888	-51.03
970.062	-3.93
970.237	47.27
970.411	-8.02
970.585	92.33
970.759	6.31
970.934	-10.07
971.108	71.85
971.282	-18.26
971.456	-22.36
971.63	32.94
971.805	-32.6
971.979	-1.88
972.153	-10.07
972.327	-8.02
972.501	2.22
972.675	45.23
972.849	-16.21
973.024	49.32
973.198	-42.84
973.372	-83.8
973.546	90.28
973.72	28.84
973.894	20.65
974.068	2.22
974.242	-1.88
974.416	-26.45
974.59	-30.55
974.764	-67.41
974.938	-137.04
975.112	-22.36
975.286	106.67
975.46	63.66
975.633	-16.21
975.807	20.65
975.981	71.85
976.155	-18.26
976.329	-38.74
976.503	51.37
976.677	-44.88
976.85	14.51
977.024	4.27
977.198	20.65
977.372	-18.26
977.546	49.32
977.719	2.22
977.893	102.57
978.067	98.47
978.241	-38.74
978.414	-42.84
978.588	8.36
978.762	0.17
978.935	53.42
979.109	2.22
979.283	26.79
979.456	53.42
979.63	127.14
979.804	-55.12
979.977	8.36
980.151	-65.36
980.324	47.27
980.498	-77.65
980.671	-3.93
980.845	-34.64
981.018	-18.26
981.192	-61.27
981.365	80.04
981.539	34.99
981.712	6.31
981.886	-46.93
982.059	-42.84
982.233	24.75
982.406	-8.02
982.58	57.51
982.753	49.32
982.926	-55.12
983.1	53.42
983.273	92.33
983.446	53.42
983.62	-32.6
983.793	104.62
983.966	-30.55
984.14	129.19
984.313	20.65
984.486	65.71
984.66	-30.55
984.833	164.01
985.006	-69.46
985.179	2.22
985.352	37.03
985.526	-48.98
985.699	-26.45
985.872	86.19
986.045	45.23
986.218	90.28
986.391	-16.21
986.565	57.51
986.738	-8.02
986.911	-28.5
987.084	14.51
987.257	63.66
987.43	-75.6
987.603	59.56
987.776	37.03
987.949	112.81
988.122	32.94
988.295	-65.36
988.468	-48.98
988.641	37.03
988.814	18.6
988.987	6.31
989.16	-44.88
989.333	-32.6
989.506	6.31
989.679	49.32
989.852	131.24
990.025	88.23
990.197	45.23
990.37	51.37
990.543	-38.74
990.716	41.13
990.889	18.6
991.062	-61.27
991.234	47.27
991.407	-79.7
991.58	41.13
991.753	-10.07
991.925	41.13
992.098	-5.97
992.271	-22.36
992.444	-42.84
992.616	39.08
992.789	4.27
992.962	-48.98
993.134	14.51
993.307	-55.12
993.479	-20.31
993.652	37.03
993.825	12.46
993.997	90.28
994.17	-85.84
994.342	28.84
994.515	-69.46
994.688	0.17
994.86	75.95
995.033	8.36
995.205	121
995.378	49.32
995.55	82.09
995.723	-51.03
995.895	77.99
996.067	61.61
996.24	45.23
996.412	84.14
996.585	20.65
996.757	24.75
996.929	-16.21
997.102	34.99
997.274	-106.32
997.447	53.42
997.619	26.79
997.791	88.23
997.964	-130.9
998.136	12.46
998.308	-5.97
998.48	4.27
998.653	61.61
998.825	41.13
998.997	0.17
999.169	-34.64
999.342	61.61
999.514	-40.79
999.686	6.31
999.858	39.08
1000.03	57.51
1000.202	-12.12
1000.374	22.7
1000.547	16.55
1000.719	-87.89
1000.891	45.23
1001.063	22.7
1001.235	-1.88
1001.407	-24.4
1001.579	-30.55
1001.751	90.28
1001.923	-53.08
1002.095	37.03
1002.267	6.31
1002.439	-81.75
1002.611	20.65
1002.783	18.6
1002.955	6.31
1003.127	34.99
1003.299	-30.55
1003.471	-5.97
1003.643	84.14
1003.815	4.27
1003.986	14.51
1004.158	108.71
1004.33	-8.02
1004.502	88.23
1004.674	121
1004.846	88.23
1005.017	-32.6
1005.189	22.7
1005.361	10.41
1005.533	32.94
1005.704	96.43
1005.876	-20.31
1006.048	141.48
1006.22	0.17
1006.391	-18.26
1006.563	59.56
1006.735	16.55
1006.906	-128.85
1007.078	-214.87
1007.25	-73.56
1007.421	2.22
1007.593	-16.21
1007.764	-14.17
1007.936	118.95
1008.108	20.65
1008.279	22.7
1008.451	-14.17
1008.622	24.75
1008.794	-36.69
1008.965	18.6
1009.137	80.04
1009.308	-57.17
1009.48	24.75
1009.651	135.34
1009.823	-48.98
1009.994	-16.21
1010.165	37.03
1010.337	32.94
1010.508	139.43
1010.68	16.55
1010.851	-18.26
1011.022	0.17
1011.194	-44.88
1011.365	-98.13
1011.536	-42.84
1011.708	14.51
1011.879	34.99
1012.05	106.67
1012.222	77.99
1012.393	65.71
1012.564	51.37
1012.735	94.38
1012.906	-8.02
1013.078	100.52
1013.249	4.27
1013.42	20.65
1013.591	-16.21
1013.762	149.67
1013.934	24.75
1014.105	-3.93
1014.276	4.27
1014.447	-8.02
1014.618	65.71
1014.789	121
1014.96	65.71
1015.131	51.37
1015.302	16.55
1015.473	45.23
1015.644	39.08
1015.815	-73.56
1015.986	8.36
1016.157	32.94
1016.328	-14.17
1016.499	20.65
1016.67	-81.75
1016.841	37.03
1017.012	-3.93
1017.183	0.17
1017.354	8.36
1017.525	-18.26
1017.696	26.79
1017.867	-48.98
1018.037	86.19
1018.208	104.62
1018.379	-3.93
1018.55	37.03
1018.721	127.14
1018.891	55.47
1019.062	-77.65
1019.233	34.99
1019.404	51.37
1019.574	-8.02
1019.745	-57.17
1019.916	-65.36
1020.087	34.99
1020.257	-116.56
1020.428	-218.96
1020.599	-20.31
1020.769	-18.26
1020.94	-40.79
1021.11	147.62
1021.281	-24.4
1021.452	63.66
1021.622	-102.23
1021.793	67.75
1021.963	-8.02
1022.134	-67.41
1022.305	-12.12
1022.475	110.76
1022.646	184.49
1022.816	-53.08
1022.987	41.13
1023.157	39.08
1023.327	86.19
1023.498	-10.07
1023.668	55.47
1023.839	-57.17
1024.009	-32.6
1024.18	39.08
1024.35	16.55
1024.52	65.71
1024.691	20.65
1024.861	2.22
1025.031	-55.12
1025.202	-10.07
1025.372	28.84
1025.542	-14.17
1025.713	51.37
1025.883	0.17
1026.053	2.22
1026.223	102.57
1026.394	20.65
1026.564	-1.88
1026.734	10.41
1026.904	-20.31
1027.074	8.36
1027.245	-5.97
1027.415	77.99
1027.585	28.84
1027.755	-12.12
1027.925	-122.71
1028.095	65.71
1028.265	110.76
1028.435	-8.02
1028.606	16.55
1028.776	16.55
1028.946	-5.97
1029.116	-51.03
1029.286	16.55
1029.456	-18.26
1029.626	-5.97
1029.796	-24.4
1029.966	59.56
1030.136	-40.79
1030.306	-10.07
1030.475	73.9
1030.645	-46.93
1030.815	12.46
1030.985	-65.36
1031.155	90.28
1031.325	10.41
1031.495	-20.31
1031.665	63.66
1031.835	114.86
1032.004	-53.08
1032.174	-42.84
1032.344	22.7
1032.514	-10.07
1032.684	-1.88
1032.853	80.04
1033.023	-3.93
1033.193	6.31
1033.362	-20.31
1033.532	90.28
1033.702	16.55
1033.872	63.66
1034.041	-48.98
1034.211	63.66
1034.381	-16.21
1034.55	-73.56
1034.72	-22.36
1034.889	88.23
1035.059	0.17
1035.229	45.23
1035.398	-5.97
1035.568	84.14
1035.737	8.36
1035.907	-40.79
1036.076	65.71
1036.246	4.27
1036.415	-3.93
1036.585	-83.8
1036.754	-46.93
1036.924	-51.03
1037.093	32.94
1037.263	-42.84
1037.432	47.27
1037.601	-14.17
1037.771	-65.36
1037.94	98.47
1038.11	-114.52
1038.279	-106.32
1038.448	-24.4
1038.618	-38.74
1038.787	32.94
1038.956	-36.69
1039.126	-18.26
1039.295	-34.64
1039.464	49.32
1039.633	14.51
1039.803	4.27
1039.972	121
1040.141	-5.97
1040.31	12.46
1040.479	8.36
1040.649	20.65
1040.818	-69.46
1040.987	-5.97
1041.156	-30.55
1041.325	4.27
1041.494	-34.64
1041.663	82.09
1041.833	43.18
1042.002	73.9
1042.171	-14.17
1042.34	-28.5
1042.509	53.42
1042.678	-10.07
