Data from LSP57_S7_Subt2_15-40-38-627.txt Node
Date: Wed Aug 09 15:40:38 EDT 2023
User: Emmanuel
Spectrometer: USB4A00615
Scans to average: 1
Trigger mode: 1
Integration Time (sec): 1.000000E-2
Electric dark correction enabled: true
Boxcar width: 0
XAxis mode: Wavelengths
Number of Pixels in Spectrum: 3648
>>>>>Begin Spectral Data<<<<<
346.606	-95.06
346.818	-95.06
347.029	-95.06
347.241	17.58
347.452	154.79
347.664	-37.72
347.876	89.26
348.087	3.24
348.299	-23.38
348.51	23.72
348.722	-64.34
348.933	-56.15
349.145	44.2
349.356	9.39
349.568	-0.85
349.779	64.68
349.991	-52.05
350.202	11.43
350.414	103.59
350.625	9.39
350.836	-29.52
351.048	44.2
351.259	87.21
351.471	9.39
351.682	68.78
351.893	44.2
352.105	95.4
352.316	5.29
352.527	11.43
352.739	-68.44
352.95	29.87
353.161	-56.15
353.372	-25.43
353.584	31.91
353.795	99.5
354.006	44.2
354.217	-11.09
354.429	-9.05
354.64	-0.85
354.851	38.06
355.062	-90.96
355.274	25.77
355.485	9.39
355.696	-45.91
355.907	-99.16
356.118	-13.14
356.329	152.74
356.54	56.49
356.752	-64.34
356.963	134.31
357.174	50.35
357.385	15.53
357.596	23.72
357.807	21.67
358.018	31.91
358.229	113.83
358.44	-66.39
358.651	72.87
358.862	13.48
359.073	9.39
359.284	11.43
359.495	33.96
359.706	-33.62
359.917	-23.38
360.128	-0.85
360.339	-25.43
360.55	25.77
360.761	21.67
360.972	46.25
361.182	5.29
361.393	50.35
361.604	91.31
361.815	25.77
362.026	74.92
362.237	76.97
362.447	-35.67
362.658	21.67
362.869	74.92
363.08	36.01
363.291	-45.91
363.501	105.64
363.712	36.01
363.923	122.02
364.134	-80.72
364.344	5.29
364.555	-13.14
364.766	83.11
364.976	46.25
365.187	38.06
365.398	60.59
365.608	29.87
365.819	-31.57
366.03	23.72
366.24	99.5
366.451	-111.44
366.662	107.69
366.872	40.11
367.083	152.74
367.293	40.11
367.504	93.35
367.714	68.78
367.925	44.2
368.135	17.58
368.346	91.31
368.557	60.59
368.767	58.54
368.977	21.67
369.188	33.96
369.398	97.45
369.609	48.3
369.819	-2.9
370.03	-0.85
370.24	115.88
370.451	128.17
370.661	31.91
370.871	193.7
371.082	3.24
371.292	162.98
371.502	56.49
371.713	64.68
371.923	23.72
372.133	111.78
372.344	79.02
372.554	97.45
372.764	44.2
372.975	36.01
373.185	62.63
373.395	-4.95
373.605	-11.09
373.816	40.11
374.026	42.15
374.236	-31.57
374.446	25.77
374.656	-39.76
374.867	-4.95
375.077	-0.85
375.287	44.2
375.497	-17.24
375.707	13.48
375.917	-23.38
376.127	17.58
376.338	7.34
376.548	9.39
376.758	-4.95
376.968	85.16
377.178	-2.9
377.388	-23.38
377.598	-45.91
377.808	-56.15
378.018	179.37
378.228	-52.05
378.438	36.01
378.648	13.48
378.858	60.59
379.068	-25.43
379.278	70.83
379.488	44.2
379.698	-9.05
379.908	7.34
380.118	21.67
380.327	40.11
380.537	-60.24
380.747	-62.29
380.957	13.48
381.167	3.24
381.377	91.31
381.587	76.97
381.796	119.98
382.006	7.34
382.216	33.96
382.426	38.06
382.636	17.58
382.845	23.72
383.055	64.68
383.265	66.73
383.475	27.82
383.684	29.87
383.894	62.63
384.104	-64.34
384.313	21.67
384.523	103.59
384.733	76.97
384.942	9.39
385.152	-29.52
385.362	-4.95
385.571	72.87
385.781	-15.19
385.991	-25.43
386.2	64.68
386.41	-37.72
386.619	109.74
386.829	76.97
387.038	-76.63
387.248	58.54
387.457	81.07
387.667	17.58
387.876	46.25
388.086	36.01
388.295	-0.85
388.505	97.45
388.714	79.02
388.924	-45.91
389.133	56.49
389.343	52.39
389.552	-4.95
389.762	38.06
389.971	99.5
390.18	-47.96
390.39	154.79
390.599	142.5
390.808	44.2
391.018	46.25
391.227	87.21
391.436	17.58
391.646	148.65
391.855	19.63
392.064	-129.88
392.274	148.65
392.483	70.83
392.692	-17.24
392.901	-54.1
393.111	-21.33
393.32	46.25
393.529	87.21
393.738	95.4
393.947	-41.81
394.157	132.26
394.366	85.16
394.575	54.44
394.784	-23.38
394.993	66.73
395.202	60.59
395.411	-62.29
395.62	122.02
395.83	38.06
396.039	-23.38
396.248	-68.44
396.457	40.11
396.666	-9.05
396.875	-0.85
397.084	-4.95
397.293	81.07
397.502	-68.44
397.711	-2.9
397.92	83.11
398.129	-58.2
398.338	70.83
398.547	70.83
398.756	33.96
398.965	130.22
399.174	33.96
399.382	79.02
399.591	33.96
399.8	79.02
400.009	19.63
400.218	126.12
400.427	-74.58
400.636	52.39
400.844	60.59
401.053	101.55
401.262	-35.67
401.471	50.35
401.68	-76.63
401.888	158.89
402.097	117.93
402.306	5.29
402.515	25.77
402.723	117.93
402.932	-15.19
403.141	-0.85
403.35	60.59
403.558	-52.05
403.767	128.17
403.976	-17.24
404.184	15.53
404.393	46.25
404.602	-64.34
404.81	-25.43
405.019	-0.85
405.227	33.96
405.436	15.53
405.645	79.02
405.853	44.2
406.062	27.82
406.27	130.22
406.479	50.35
406.687	9.39
406.896	-119.64
407.104	140.46
407.313	17.58
407.521	9.39
407.73	52.39
407.938	79.02
408.147	54.44
408.355	23.72
408.563	95.4
408.772	-72.53
408.98	144.55
409.189	144.55
409.397	119.98
409.605	29.87
409.814	5.29
410.022	25.77
410.23	50.35
410.439	122.02
410.647	79.02
410.855	-101.2
411.064	56.49
411.272	27.82
411.48	124.07
411.688	29.87
411.897	9.39
412.105	-0.85
412.313	79.02
412.521	-9.05
412.73	48.3
412.938	74.92
413.146	-11.09
413.354	107.69
413.562	17.58
413.77	36.01
413.979	42.15
414.187	13.48
414.395	-54.1
414.603	-11.09
414.811	-31.57
415.019	52.39
415.227	-56.15
415.435	62.63
415.643	-27.48
415.851	-15.19
416.059	-58.2
416.267	64.68
416.475	31.91
416.683	-15.19
416.891	15.53
417.099	38.06
417.307	76.97
417.515	19.63
417.723	91.31
417.931	115.88
418.139	158.89
418.347	89.26
418.555	21.67
418.763	23.72
418.971	91.31
419.179	-58.2
419.386	-17.24
419.594	13.48
419.802	7.34
420.01	-27.48
420.218	101.55
420.426	19.63
420.633	44.2
420.841	68.78
421.049	-19.29
421.257	19.63
421.464	107.69
421.672	58.54
421.88	29.87
422.088	46.25
422.295	52.39
422.503	70.83
422.711	91.31
422.918	9.39
423.126	-52.05
423.334	-31.57
423.541	103.59
423.749	-31.57
423.956	9.39
424.164	9.39
424.372	134.31
424.579	-109.4
424.787	27.82
424.994	81.07
425.202	19.63
425.409	29.87
425.617	-19.29
425.824	-58.2
426.032	25.77
426.239	50.35
426.447	5.29
426.654	-41.81
426.862	23.72
427.069	-39.76
427.277	126.12
427.484	79.02
427.692	83.11
427.899	79.02
428.106	-7
428.314	72.87
428.521	42.15
428.728	42.15
428.936	136.36
429.143	38.06
429.351	99.5
429.558	-4.95
429.765	3.24
429.972	60.59
430.18	46.25
430.387	62.63
430.594	-58.2
430.801	40.11
431.009	76.97
431.216	-43.86
431.423	15.53
431.63	-33.62
431.838	54.44
432.045	48.3
432.252	52.39
432.459	62.63
432.666	5.29
432.873	85.16
433.081	56.49
433.288	52.39
433.495	-84.82
433.702	5.29
433.909	11.43
434.116	95.4
434.323	23.72
434.53	5.29
434.737	36.01
434.944	124.07
435.151	-17.24
435.358	-82.77
435.565	66.73
435.772	-41.81
435.979	56.49
436.186	169.13
436.393	81.07
436.6	17.58
436.807	17.58
437.014	85.16
437.221	23.72
437.428	136.36
437.635	27.82
437.841	93.35
438.048	27.82
438.255	-4.95
438.462	21.67
438.669	81.07
438.876	23.72
439.082	-2.9
439.289	31.91
439.496	-29.52
439.703	-56.15
439.91	-45.91
440.116	64.68
440.323	74.92
440.53	-29.52
440.737	-4.95
440.943	52.39
441.15	-7
441.357	-115.54
441.563	3.24
441.77	36.01
441.977	99.5
442.183	-54.1
442.39	-72.53
442.597	-62.29
442.803	50.35
443.01	42.15
443.216	-80.72
443.423	156.84
443.63	-31.57
443.836	79.02
444.043	33.96
444.249	79.02
444.456	11.43
444.662	5.29
444.869	107.69
445.075	31.91
445.282	93.35
445.488	33.96
445.695	-19.29
445.901	-70.48
446.107	62.63
446.314	31.91
446.52	-19.29
446.727	64.68
446.933	21.67
447.139	50.35
447.346	111.78
447.552	-17.24
447.759	-82.77
447.965	-13.14
448.171	38.06
448.378	-33.62
448.584	140.46
448.79	62.63
448.996	-97.11
449.203	93.35
449.409	-29.52
449.615	54.44
449.821	111.78
450.028	-0.85
450.234	7.34
450.44	7.34
450.646	-17.24
450.852	27.82
451.059	27.82
451.265	58.54
451.471	-72.53
451.677	44.2
451.883	76.97
452.089	7.34
452.295	79.02
452.502	54.44
452.708	50.35
452.914	56.49
453.12	111.78
453.326	66.73
453.532	29.87
453.738	1.19
453.944	74.92
454.15	-47.96
454.356	83.11
454.562	5.29
454.768	-2.9
454.974	60.59
455.18	138.41
455.386	36.01
455.592	109.74
455.798	17.58
456.003	36.01
456.209	60.59
456.415	-35.67
456.621	42.15
456.827	99.5
457.033	66.73
457.239	54.44
457.444	56.49
457.65	66.73
457.856	-54.1
458.062	105.64
458.268	7.34
458.473	-17.24
458.679	3.24
458.885	113.83
459.091	81.07
459.296	27.82
459.502	-17.24
459.708	46.25
459.914	48.3
460.119	-9.05
460.325	-50
460.531	42.15
460.736	64.68
460.942	42.15
461.147	58.54
461.353	91.31
461.559	79.02
461.764	-31.57
461.97	74.92
462.175	15.53
462.381	64.68
462.587	1.19
462.792	-80.72
462.998	93.35
463.203	50.35
463.409	1.19
463.614	187.56
463.82	19.63
464.025	74.92
464.231	5.29
464.436	11.43
464.641	21.67
464.847	62.63
465.052	46.25
465.258	29.87
465.463	-11.09
465.669	19.63
465.874	7.34
466.079	27.82
466.285	187.56
466.49	122.02
466.695	93.35
466.901	11.43
467.106	-70.48
467.311	-119.64
467.516	-31.57
467.722	-15.19
467.927	23.72
468.132	38.06
468.338	-45.91
468.543	21.67
468.748	-54.1
468.953	25.77
469.158	1.19
469.364	-2.9
469.569	19.63
469.774	-7
469.979	115.88
470.184	83.11
470.389	81.07
470.594	66.73
470.8	38.06
471.005	29.87
471.21	19.63
471.415	-15.19
471.62	54.44
471.825	111.78
472.03	-7
472.235	-29.52
472.44	33.96
472.645	81.07
472.85	50.35
473.055	29.87
473.26	66.73
473.465	-80.72
473.67	-13.14
473.875	7.34
474.08	23.72
474.285	66.73
474.49	-25.43
474.695	99.5
474.899	42.15
475.104	-72.53
475.309	64.68
475.514	60.59
475.719	-66.39
475.924	136.36
476.128	56.49
476.333	-52.05
476.538	33.96
476.743	222.38
476.948	3.24
477.152	66.73
477.357	-62.29
477.562	201.9
477.767	101.55
477.971	15.53
478.176	3.24
478.381	-101.2
478.585	91.31
478.79	31.91
478.995	21.67
479.199	3.24
479.404	-29.52
479.609	42.15
479.813	134.31
480.018	9.39
480.223	79.02
480.427	36.01
480.632	19.63
480.836	48.3
481.041	128.17
481.245	70.83
481.45	19.63
481.654	107.69
481.859	-17.24
482.063	54.44
482.268	91.31
482.472	-58.2
482.677	148.65
482.881	25.77
483.086	-95.06
483.29	11.43
483.495	79.02
483.699	117.93
483.903	81.07
484.108	76.97
484.312	87.21
484.517	66.73
484.721	27.82
484.925	-68.44
485.13	-66.39
485.334	107.69
485.538	-52.05
485.743	87.21
485.947	83.11
486.151	23.72
486.355	72.87
486.56	21.67
486.764	56.49
486.968	-2.9
487.172	-56.15
487.377	40.11
487.581	13.48
487.785	-2.9
487.989	117.93
488.193	-80.72
488.397	-17.24
488.602	105.64
488.806	-27.48
489.01	79.02
489.214	52.39
489.418	113.83
489.622	9.39
489.826	36.01
490.03	15.53
490.234	-29.52
490.438	1.19
490.642	31.91
490.846	-23.38
491.05	-9.05
491.254	-244.56
491.458	48.3
491.662	25.77
491.866	119.98
492.07	-33.62
492.274	68.78
492.478	25.77
492.682	205.99
492.886	36.01
493.09	9.39
493.294	152.74
493.498	103.59
493.701	-0.85
493.905	160.94
494.109	-9.05
494.313	-17.24
494.517	64.68
494.721	91.31
494.924	52.39
495.128	46.25
495.332	54.44
495.536	-7
495.739	-54.1
495.943	54.44
496.147	81.07
496.351	136.36
496.554	-37.72
496.758	-4.95
496.962	107.69
497.165	-60.24
497.369	-21.33
497.573	-25.43
497.776	74.92
497.98	48.3
498.184	-76.63
498.387	-103.25
498.591	46.25
498.794	89.26
498.998	72.87
499.202	70.83
499.405	58.54
499.609	115.88
499.812	1.19
500.016	-11.09
500.219	36.01
500.423	7.34
500.626	-64.34
500.83	31.91
501.033	36.01
501.237	9.39
501.44	5.29
501.643	36.01
501.847	-45.91
502.05	81.07
502.254	25.77
502.457	85.16
502.66	31.91
502.864	105.64
503.067	91.31
503.271	85.16
503.474	36.01
503.677	64.68
503.88	-4.95
504.084	128.17
504.287	-84.82
504.49	42.15
504.694	-56.15
504.897	-19.29
505.1	81.07
505.303	62.63
505.507	-29.52
505.71	19.63
505.913	113.83
506.116	72.87
506.319	31.91
506.522	130.22
506.726	44.2
506.929	-72.53
507.132	-9.05
507.335	42.15
507.538	-47.96
507.741	93.35
507.944	-4.95
508.147	27.82
508.35	-27.48
508.553	54.44
508.756	11.43
508.959	-52.05
509.163	13.48
509.366	70.83
509.569	81.07
509.771	-21.33
509.974	36.01
510.177	17.58
510.38	38.06
510.583	87.21
510.786	-39.76
510.989	58.54
511.192	95.4
511.395	62.63
511.598	27.82
511.801	79.02
512.004	-88.92
512.206	-93.01
512.409	1.19
512.612	23.72
512.815	21.67
513.018	13.48
513.22	50.35
513.423	128.17
513.626	27.82
513.829	-25.43
514.032	33.96
514.234	27.82
514.437	29.87
514.64	31.91
514.842	25.77
515.045	27.82
515.248	-17.24
515.45	33.96
515.653	-29.52
515.856	40.11
516.058	-62.29
516.261	93.35
516.464	-41.81
516.666	126.12
516.869	91.31
517.071	42.15
517.274	111.78
517.477	-35.67
517.679	33.96
517.882	-0.85
518.084	29.87
518.287	-11.09
518.489	117.93
518.692	38.06
518.894	48.3
519.097	66.73
519.299	5.29
519.501	23.72
519.704	1.19
519.906	95.4
520.109	95.4
520.311	-37.72
520.514	95.4
520.716	38.06
520.918	-45.91
521.121	101.55
521.323	-2.9
521.525	23.72
521.728	-19.29
521.93	-35.67
522.132	25.77
522.335	9.39
522.537	97.45
522.739	56.49
522.941	-37.72
523.144	9.39
523.346	56.49
523.548	97.45
523.75	-15.19
523.952	11.43
524.155	93.35
524.357	5.29
524.559	-41.81
524.761	-43.86
524.963	-7
525.165	7.34
525.368	36.01
525.57	119.98
525.772	3.24
525.974	-23.38
526.176	13.48
526.378	79.02
526.58	76.97
526.782	48.3
526.984	13.48
527.186	-35.67
527.388	79.02
527.59	-47.96
527.792	58.54
527.994	93.35
528.196	36.01
528.398	3.24
528.6	13.48
528.802	101.55
529.004	60.59
529.206	70.83
529.408	50.35
529.609	62.63
529.811	38.06
530.013	64.68
530.215	-17.24
530.417	103.59
530.619	27.82
530.821	107.69
531.022	15.53
531.224	38.06
531.426	97.45
531.628	79.02
531.829	-70.48
532.031	85.16
532.233	7.34
532.435	-21.33
532.636	-4.95
532.838	171.18
533.04	-39.76
533.241	-47.96
533.443	42.15
533.645	27.82
533.846	52.39
534.048	-19.29
534.25	58.54
534.451	113.83
534.653	-50
534.855	52.39
535.056	17.58
535.258	44.2
535.459	87.21
535.661	83.11
535.862	48.3
536.064	23.72
536.265	87.21
536.467	29.87
536.668	-58.2
536.87	23.72
537.071	-78.68
537.273	79.02
537.474	50.35
537.676	70.83
537.877	17.58
538.078	36.01
538.28	-33.62
538.481	36.01
538.683	-31.57
538.884	33.96
539.085	13.48
539.287	-0.85
539.488	128.17
539.689	-33.62
539.891	74.92
540.092	-7
540.293	50.35
540.495	91.31
540.696	9.39
540.897	-54.1
541.098	52.39
541.3	13.48
541.501	15.53
541.702	54.44
541.903	-11.09
542.104	58.54
542.306	42.15
542.507	36.01
542.708	60.59
542.909	36.01
543.11	54.44
543.311	17.58
543.512	17.58
543.713	7.34
543.915	-74.58
544.116	60.59
544.317	99.5
544.518	136.36
544.719	17.58
544.92	64.68
545.121	9.39
545.322	-45.91
545.523	-144.21
545.724	52.39
545.925	126.12
546.126	27.82
546.327	46.25
546.528	54.44
546.729	42.15
546.929	-25.43
547.13	-56.15
547.331	21.67
547.532	-33.62
547.733	150.7
547.934	21.67
548.135	54.44
548.336	124.07
548.536	101.55
548.737	-56.15
548.938	29.87
549.139	-35.67
549.34	-19.29
549.54	74.92
549.741	13.48
549.942	44.2
550.143	-281.43
550.343	111.78
550.544	87.21
550.745	1.19
550.945	36.01
551.146	11.43
551.347	-80.72
551.547	-33.62
551.748	23.72
551.949	-0.85
552.149	44.2
552.35	-29.52
552.551	85.16
552.751	46.25
552.952	-39.76
553.152	113.83
553.353	-17.24
553.553	-31.57
553.754	56.49
553.954	9.39
554.155	76.97
554.356	25.77
554.556	33.96
554.756	-31.57
554.957	58.54
555.157	27.82
555.358	113.83
555.558	52.39
555.759	91.31
555.959	64.68
556.159	-35.67
556.36	48.3
556.56	146.6
556.761	-29.52
556.961	68.78
557.161	-115.54
557.362	162.98
557.562	-66.39
557.762	33.96
557.963	-54.1
558.163	-31.57
558.363	-35.67
558.563	74.92
558.764	81.07
558.964	33.96
559.164	13.48
559.364	122.02
559.565	-19.29
559.765	11.43
559.965	103.59
560.165	-31.57
560.365	-19.29
560.565	-64.34
560.766	-7
560.966	38.06
561.166	-68.44
561.366	15.53
561.566	46.25
561.766	-58.2
561.966	33.96
562.166	210.09
562.366	103.59
562.566	40.11
562.766	46.25
562.966	-50
563.166	-52.05
563.366	76.97
563.566	56.49
563.766	83.11
563.966	132.26
564.166	-23.38
564.366	15.53
564.566	103.59
564.766	99.5
564.966	-19.29
565.166	60.59
565.366	-2.9
565.565	-25.43
565.765	25.77
565.965	9.39
566.165	48.3
566.365	44.2
566.565	42.15
566.764	81.07
566.964	-47.96
567.164	-41.81
567.364	-33.62
567.564	76.97
567.763	74.92
567.963	19.63
568.163	13.48
568.362	48.3
568.562	19.63
568.762	62.63
568.961	62.63
569.161	103.59
569.361	-23.38
569.56	-31.57
569.76	-76.63
569.96	54.44
570.159	-27.48
570.359	-72.53
570.558	31.91
570.758	72.87
570.958	-13.14
571.157	58.54
571.357	154.79
571.556	33.96
571.756	85.16
571.955	-25.43
572.155	-27.48
572.354	-17.24
572.554	50.35
572.753	87.21
572.953	56.49
573.152	107.69
573.351	-97.11
573.551	46.25
573.75	-2.9
573.95	38.06
574.149	9.39
574.348	-47.96
574.548	76.97
574.747	5.29
574.946	21.67
575.146	-33.62
575.345	64.68
575.544	-93.01
575.744	1.19
575.943	-93.01
576.142	138.41
576.342	-9.05
576.541	111.78
576.74	56.49
576.939	50.35
577.138	138.41
577.338	122.02
577.537	-154.45
577.736	-60.24
577.935	13.48
578.134	25.77
578.333	5.29
578.533	38.06
578.732	3.24
578.931	-31.57
579.13	40.11
579.329	50.35
579.528	-68.44
579.727	36.01
579.926	-72.53
580.125	111.78
580.324	97.45
580.523	175.27
580.722	-41.81
580.921	70.83
581.12	9.39
581.319	23.72
581.518	91.31
581.717	40.11
581.916	40.11
582.115	54.44
582.314	66.73
582.513	15.53
582.712	-66.39
582.911	130.22
583.109	-60.24
583.308	-19.29
583.507	56.49
583.706	58.54
583.905	-4.95
584.104	109.74
584.302	-17.24
584.501	42.15
584.7	-54.1
584.899	-66.39
585.098	79.02
585.296	31.91
585.495	40.11
585.694	21.67
585.892	72.87
586.091	-7
586.29	13.48
586.488	-43.86
586.687	54.44
586.886	25.77
587.084	54.44
587.283	-50
587.482	-15.19
587.68	15.53
587.879	70.83
588.077	-50
588.276	83.11
588.475	40.11
588.673	66.73
588.872	-2.9
589.07	85.16
589.269	85.16
589.467	136.36
589.666	-21.33
589.864	58.54
590.063	31.91
590.261	3.24
590.46	31.91
590.658	60.59
590.857	-19.29
591.055	25.77
591.253	-56.15
591.452	-58.2
591.65	27.82
591.848	101.55
592.047	79.02
592.245	64.68
592.444	46.25
592.642	-11.09
592.84	40.11
593.038	29.87
593.237	-33.62
593.435	52.39
593.633	162.98
593.832	-60.24
594.03	93.35
594.228	1.19
594.426	56.49
594.624	95.4
594.823	33.96
595.021	54.44
595.219	48.3
595.417	-7
595.615	9.39
595.813	23.72
596.012	60.59
596.21	48.3
596.408	-21.33
596.606	60.59
596.804	81.07
597.002	-45.91
597.2	19.63
597.398	-43.86
597.596	44.2
597.794	74.92
597.992	83.11
598.19	-19.29
598.388	42.15
598.586	27.82
598.784	-0.85
598.982	25.77
599.18	144.55
599.378	109.74
599.576	60.59
599.774	-29.52
599.972	33.96
600.17	-4.95
600.368	25.77
600.565	54.44
600.763	-2.9
600.961	56.49
601.159	23.72
601.357	44.2
601.555	130.22
601.752	56.49
601.95	-25.43
602.148	60.59
602.346	-15.19
602.544	76.97
602.741	-82.77
602.939	7.34
603.137	-19.29
603.334	-111.44
603.532	36.01
603.73	-25.43
603.927	85.16
604.125	9.39
604.323	-164.69
604.52	-45.91
604.718	-17.24
604.916	31.91
605.113	-115.54
605.311	56.49
605.508	56.49
605.706	72.87
605.904	-0.85
606.101	-70.48
606.299	5.29
606.496	66.73
606.694	42.15
606.891	-11.09
607.089	-17.24
607.286	-41.81
607.484	42.15
607.681	-60.24
607.879	11.43
608.076	5.29
608.273	36.01
608.471	81.07
608.668	-43.86
608.866	-39.76
609.063	-113.49
609.26	-146.26
609.458	-9.05
609.655	33.96
609.852	-35.67
610.05	-9.05
610.247	38.06
610.444	52.39
610.642	23.72
610.839	-54.1
611.036	19.63
611.233	56.49
611.431	15.53
611.628	-60.24
611.825	-54.1
612.022	-78.68
612.22	54.44
612.417	-37.72
612.614	9.39
612.811	101.55
613.008	56.49
613.205	13.48
613.402	79.02
613.6	-23.38
613.797	-31.57
613.994	-88.92
614.191	54.44
614.388	36.01
614.585	-52.05
614.782	81.07
614.979	152.74
615.176	-54.1
615.373	-64.34
615.57	87.21
615.767	13.48
615.964	60.59
616.161	-78.68
616.358	-21.33
616.555	-35.67
616.752	15.53
616.949	58.54
617.146	64.68
617.343	113.83
617.539	40.11
617.736	29.87
617.933	-27.48
618.13	29.87
618.327	87.21
618.524	15.53
618.721	-109.4
618.917	23.72
619.114	19.63
619.311	107.69
619.508	-31.57
619.704	134.31
619.901	1.19
620.098	29.87
620.295	124.07
620.491	-15.19
620.688	29.87
620.885	-9.05
621.081	7.34
621.278	38.06
621.475	-21.33
621.671	27.82
621.868	-35.67
622.065	-43.86
622.261	9.39
622.458	3.24
622.655	138.41
622.851	-80.72
623.048	-76.63
623.244	-4.95
623.441	13.48
623.637	87.21
623.834	-131.92
624.03	-70.48
624.227	38.06
624.423	31.91
624.62	87.21
624.816	50.35
625.013	76.97
625.209	1.19
625.406	-35.67
625.602	-86.87
625.798	58.54
625.995	-33.62
626.191	-15.19
626.388	21.67
626.584	70.83
626.78	-0.85
626.977	-11.09
627.173	-4.95
627.369	42.15
627.566	105.64
627.762	-35.67
627.958	54.44
628.154	50.35
628.351	5.29
628.547	-25.43
628.743	3.24
628.939	111.78
629.136	-17.24
629.332	74.92
629.528	36.01
629.724	23.72
629.92	1.19
630.116	21.67
630.313	-56.15
630.509	-82.77
630.705	138.41
630.901	103.59
631.097	44.2
631.293	-45.91
631.489	-21.33
631.685	-129.88
631.881	-13.14
632.077	-23.38
632.273	-68.44
632.469	42.15
632.665	79.02
632.861	-47.96
633.057	25.77
633.253	44.2
633.449	-7
633.645	-66.39
633.841	95.4
634.037	-19.29
634.233	-43.86
634.429	130.22
634.625	5.29
634.821	68.78
635.017	74.92
635.212	-80.72
635.408	-60.24
635.604	-2.9
635.8	23.72
635.996	48.3
636.191	74.92
636.387	-31.57
636.583	50.35
636.779	-68.44
636.975	33.96
637.17	-0.85
637.366	97.45
637.562	1.19
637.757	5.29
637.953	-52.05
638.149	-39.76
638.345	23.72
638.54	50.35
638.736	-62.29
638.931	-9.05
639.127	-7
639.323	150.7
639.518	165.03
639.714	-7
639.909	-39.76
640.105	142.5
640.301	-19.29
640.496	171.18
640.692	68.78
640.887	-21.33
641.083	15.53
641.278	13.48
641.474	25.77
641.669	-41.81
641.865	-0.85
642.06	79.02
642.256	-66.39
642.451	79.02
642.646	-21.33
642.842	99.5
643.037	13.48
643.233	99.5
643.428	38.06
643.623	-29.52
643.819	-47.96
644.014	58.54
644.209	54.44
644.405	-133.97
644.6	79.02
644.795	23.72
644.99	36.01
645.186	36.01
645.381	-13.14
645.576	44.2
645.771	93.35
645.967	-4.95
646.162	9.39
646.357	38.06
646.552	-19.29
646.747	44.2
646.943	21.67
647.138	-70.48
647.333	11.43
647.528	-269.14
647.723	-27.48
647.918	36.01
648.113	91.31
648.308	60.59
648.504	46.25
648.699	-7
648.894	-90.96
649.089	-35.67
649.284	-68.44
649.479	-23.38
649.674	-56.15
649.869	107.69
650.064	-90.96
650.259	56.49
650.454	-47.96
650.649	-4.95
650.844	-25.43
651.038	93.35
651.233	25.77
651.428	56.49
651.623	64.68
651.818	-76.63
652.013	54.44
652.208	38.06
652.403	-23.38
652.597	21.67
652.792	-80.72
652.987	218.28
653.182	-29.52
653.377	-2.9
653.571	56.49
653.766	-41.81
653.961	11.43
654.156	113.83
654.35	-99.16
654.545	-17.24
654.74	95.4
654.935	19.63
655.129	60.59
655.324	68.78
655.519	46.25
655.713	27.82
655.908	-82.77
656.102	132.26
656.297	-39.76
656.492	128.17
656.686	-11.09
656.881	68.78
657.075	-37.72
657.27	36.01
657.464	-64.34
657.659	103.59
657.854	5.29
658.048	48.3
658.243	15.53
658.437	46.25
658.631	-29.52
658.826	203.94
659.02	-64.34
659.215	132.26
659.409	62.63
659.604	-146.26
659.798	-7
659.992	27.82
660.187	15.53
660.381	-4.95
660.576	-62.29
660.77	66.73
660.964	-2.9
661.159	124.07
661.353	97.45
661.547	-29.52
661.742	83.11
661.936	31.91
662.13	42.15
662.324	40.11
662.519	-23.38
662.713	72.87
662.907	-17.24
663.101	54.44
663.295	103.59
663.49	-60.24
663.684	64.68
663.878	-15.19
664.072	138.41
664.266	144.55
664.46	-56.15
664.654	21.67
664.849	21.67
665.043	31.91
665.237	11.43
665.431	-33.62
665.625	40.11
665.819	91.31
666.013	99.5
666.207	29.87
666.401	119.98
666.595	21.67
666.789	-25.43
666.983	44.2
667.177	42.15
667.371	52.39
667.565	60.59
667.759	-15.19
667.953	-4.95
668.147	5.29
668.34	87.21
668.534	42.15
668.728	-19.29
668.922	-56.15
669.116	97.45
669.31	156.84
669.504	-68.44
669.697	103.59
669.891	-21.33
670.085	17.58
670.279	25.77
670.473	95.4
670.666	74.92
670.86	76.97
671.054	113.83
671.248	46.25
671.441	36.01
671.635	173.22
671.829	52.39
672.022	-15.19
672.216	-4.95
672.41	-2.9
672.603	-80.72
672.797	-25.43
672.99	58.54
673.184	60.59
673.378	66.73
673.571	81.07
673.765	62.63
673.958	156.84
674.152	62.63
674.345	60.59
674.539	11.43
674.733	1.19
674.926	148.65
675.12	76.97
675.313	1.19
675.506	111.78
675.7	140.46
675.893	111.78
676.087	72.87
676.28	48.3
676.474	40.11
676.667	113.83
676.86	-109.4
677.054	15.53
677.247	21.67
677.441	-9.05
677.634	-86.87
677.827	89.26
678.02	38.06
678.214	117.93
678.407	-23.38
678.6	5.29
678.794	99.5
678.987	1.19
679.18	-33.62
679.373	-7
679.567	5.29
679.76	79.02
679.953	7.34
680.146	9.39
680.339	162.98
680.533	23.72
680.726	-17.24
680.919	85.16
681.112	13.48
681.305	-25.43
681.498	7.34
681.691	19.63
681.884	132.26
682.077	81.07
682.271	-41.81
682.464	50.35
682.657	-7
682.85	-37.72
683.043	74.92
683.236	40.11
683.429	-41.81
683.622	-39.76
683.815	-19.29
684.008	-31.57
684.201	-17.24
684.393	97.45
684.586	33.96
684.779	27.82
684.972	36.01
685.165	-2.9
685.358	-78.68
685.551	103.59
685.744	13.48
685.937	1.19
686.129	9.39
686.322	122.02
686.515	-62.29
686.708	29.87
686.901	-50
687.093	-23.38
687.286	76.97
687.479	27.82
687.672	-86.87
687.864	-4.95
688.057	23.72
688.25	-66.39
688.442	91.31
688.635	-21.33
688.828	3.24
689.02	-0.85
689.213	56.49
689.406	3.24
689.598	-54.1
689.791	-2.9
689.984	66.73
690.176	-9.05
690.369	-31.57
690.561	-52.05
690.754	-9.05
690.946	60.59
691.139	40.11
691.331	89.26
691.524	-19.29
691.716	117.93
691.909	-101.2
692.101	-45.91
692.294	44.2
692.486	13.48
692.679	11.43
692.871	19.63
693.063	9.39
693.256	83.11
693.448	79.02
693.641	-11.09
693.833	40.11
694.025	52.39
694.218	50.35
694.41	81.07
694.602	31.91
694.795	31.91
694.987	-19.29
695.179	44.2
695.372	-43.86
695.564	-31.57
695.756	-19.29
695.948	9.39
696.14	56.49
696.333	-54.1
696.525	-41.81
696.717	74.92
696.909	-54.1
697.101	97.45
697.294	99.5
697.486	33.96
697.678	46.25
697.87	11.43
698.062	-43.86
698.254	87.21
698.446	-4.95
698.638	7.34
698.83	95.4
699.022	11.43
699.215	-86.87
699.407	154.79
699.599	-2.9
699.791	-4.95
699.983	33.96
700.175	64.68
700.367	144.55
700.558	70.83
700.75	68.78
700.942	107.69
701.134	23.72
701.326	5.29
701.518	-54.1
701.71	52.39
701.902	17.58
702.094	-4.95
702.286	-142.16
702.477	173.22
702.669	33.96
702.861	-72.53
703.053	17.58
703.245	-7
703.436	42.15
703.628	25.77
703.82	-37.72
704.012	128.17
704.203	-23.38
704.395	50.35
704.587	-15.19
704.779	9.39
704.97	-23.38
705.162	54.44
705.354	-29.52
705.545	-27.48
705.737	19.63
705.929	5.29
706.12	-82.77
706.312	25.77
706.503	-50
706.695	40.11
706.887	52.39
707.078	81.07
707.27	-37.72
707.461	5.29
707.653	-4.95
707.844	52.39
708.036	76.97
708.227	76.97
708.419	-101.2
708.61	-37.72
708.802	17.58
708.993	91.31
709.185	38.06
709.376	126.12
709.567	-7
709.759	54.44
709.95	105.64
710.141	48.3
710.333	58.54
710.524	79.02
710.716	19.63
710.907	9.39
711.098	38.06
711.289	130.22
711.481	42.15
711.672	-50
711.863	-37.72
712.055	58.54
712.246	-29.52
712.437	70.83
712.628	-60.24
712.82	-50
713.011	74.92
713.202	95.4
713.393	-29.52
713.584	-15.19
713.775	-17.24
713.967	25.77
714.158	9.39
714.349	58.54
714.54	-25.43
714.731	156.84
714.922	99.5
715.113	60.59
715.304	64.68
715.495	52.39
715.686	-7
715.877	17.58
716.068	40.11
716.259	11.43
716.45	54.44
716.641	25.77
716.832	-13.14
717.023	152.74
717.214	38.06
717.405	19.63
717.596	44.2
717.787	-2.9
717.978	107.69
718.169	-45.91
718.36	38.06
718.55	105.64
718.741	-111.44
718.932	162.98
719.123	50.35
719.314	56.49
719.505	79.02
719.695	29.87
719.886	113.83
720.077	-45.91
720.268	15.53
720.458	31.91
720.649	46.25
720.84	27.82
721.031	56.49
721.221	48.3
721.412	117.93
721.603	33.96
721.793	-13.14
721.984	-41.81
722.175	107.69
722.365	62.63
722.556	42.15
722.746	11.43
722.937	31.91
723.128	21.67
723.318	76.97
723.509	31.91
723.699	-21.33
723.89	38.06
724.08	27.82
724.271	201.9
724.461	60.59
724.652	36.01
724.842	31.91
725.033	-11.09
725.223	27.82
725.414	-86.87
725.604	115.88
725.794	117.93
725.985	-17.24
726.175	54.44
726.366	101.55
726.556	83.11
726.746	138.41
726.937	66.73
727.127	-7
727.317	46.25
727.508	68.78
727.698	-19.29
727.888	-7
728.079	-25.43
728.269	-47.96
728.459	-56.15
728.649	-50
728.84	-131.92
729.03	42.15
729.22	-45.91
729.41	111.78
729.6	130.22
729.791	5.29
729.981	-107.35
730.171	25.77
730.361	23.72
730.551	33.96
730.741	36.01
730.931	93.35
731.121	101.55
731.311	74.92
731.502	29.87
731.692	72.87
731.882	-17.24
732.072	52.39
732.262	-68.44
732.452	-31.57
732.642	54.44
732.832	-29.52
733.022	5.29
733.212	54.44
733.402	-25.43
733.591	-11.09
733.781	-76.63
733.971	103.59
734.161	25.77
734.351	7.34
734.541	185.51
734.731	97.45
734.921	-21.33
735.111	66.73
735.3	109.74
735.49	95.4
735.68	105.64
735.87	62.63
736.06	-23.38
736.249	-21.33
736.439	56.49
736.629	-23.38
736.819	97.45
737.008	15.53
737.198	21.67
737.388	74.92
737.577	122.02
737.767	64.68
737.957	-86.87
738.146	68.78
738.336	31.91
738.526	52.39
738.715	89.26
738.905	-41.81
739.094	72.87
739.284	17.58
739.474	62.63
739.663	-78.68
739.853	-21.33
740.042	44.2
740.232	23.72
740.421	38.06
740.611	91.31
740.8	62.63
740.99	48.3
741.179	97.45
741.369	54.44
741.558	122.02
741.748	-56.15
741.937	103.59
742.126	50.35
742.316	40.11
742.505	46.25
742.695	17.58
742.884	25.77
743.073	97.45
743.263	5.29
743.452	33.96
743.641	74.92
743.831	-19.29
744.02	60.59
744.209	74.92
744.398	134.31
744.588	-19.29
744.777	33.96
744.966	-23.38
745.155	103.59
745.345	31.91
745.534	158.89
745.723	146.6
745.912	19.63
746.101	36.01
746.29	19.63
746.48	97.45
746.669	126.12
746.858	36.01
747.047	23.72
747.236	-142.16
747.425	15.53
747.614	101.55
747.803	142.5
747.992	19.63
748.181	85.16
748.37	27.82
748.559	89.26
748.748	70.83
748.937	-58.2
749.126	1.19
749.315	97.45
749.504	40.11
749.693	23.72
749.882	87.21
750.071	-9.05
750.26	-45.91
750.449	-74.58
750.638	50.35
750.826	142.5
751.015	42.15
751.204	-29.52
751.393	99.5
751.582	25.77
751.771	33.96
751.959	11.43
752.148	-4.95
752.337	40.11
752.526	115.88
752.714	13.48
752.903	-39.76
753.092	50.35
753.281	25.77
753.469	70.83
753.658	42.15
753.847	-70.48
754.035	42.15
754.224	89.26
754.413	-0.85
754.601	-54.1
754.79	48.3
754.979	-43.86
755.167	1.19
755.356	50.35
755.544	5.29
755.733	111.78
755.921	83.11
756.11	42.15
756.298	-41.81
756.487	-31.57
756.675	119.98
756.864	66.73
757.052	103.59
757.241	66.73
757.429	-7
757.618	50.35
757.806	140.46
757.995	31.91
758.183	50.35
758.371	-33.62
758.56	-90.96
758.748	-84.82
758.937	-68.44
759.125	83.11
759.313	-11.09
759.502	7.34
759.69	-60.24
759.878	-68.44
760.066	-11.09
760.255	76.97
760.443	91.31
760.631	40.11
760.819	25.77
761.008	-37.72
761.196	136.36
761.384	122.02
761.572	33.96
761.761	21.67
761.949	-33.62
762.137	38.06
762.325	-95.06
762.513	70.83
762.701	93.35
762.889	54.44
763.077	-27.48
763.266	-13.14
763.454	66.73
763.642	11.43
763.83	66.73
764.018	72.87
764.206	-93.01
764.394	-29.52
764.582	-21.33
764.77	50.35
764.958	156.84
765.146	36.01
765.334	-93.01
765.522	36.01
765.71	-7
765.898	-50
766.085	132.26
766.273	48.3
766.461	87.21
766.649	68.78
766.837	-0.85
767.025	42.15
767.213	-19.29
767.401	64.68
767.588	-31.57
767.776	-0.85
767.964	-0.85
768.152	74.92
768.339	60.59
768.527	-119.64
768.715	-54.1
768.903	-17.24
769.09	-140.12
769.278	70.83
769.466	97.45
769.654	33.96
769.841	27.82
770.029	27.82
770.217	115.88
770.404	-80.72
770.592	199.85
770.779	95.4
770.967	31.91
771.155	111.78
771.342	15.53
771.53	44.2
771.717	48.3
771.905	105.64
772.092	-43.86
772.28	11.43
772.467	36.01
772.655	36.01
772.842	15.53
773.03	179.37
773.217	146.6
773.405	70.83
773.592	68.78
773.78	76.97
773.967	-17.24
774.154	-62.29
774.342	29.87
774.529	89.26
774.717	-66.39
774.904	-23.38
775.091	-15.19
775.279	91.31
775.466	152.74
775.653	-41.81
775.841	58.54
776.028	93.35
776.215	-21.33
776.402	29.87
776.59	64.68
776.777	7.34
776.964	40.11
777.151	-27.48
777.338	101.55
777.526	130.22
777.713	-0.85
777.9	42.15
778.087	50.35
778.274	13.48
778.461	68.78
778.649	5.29
778.836	-37.72
779.023	62.63
779.21	48.3
779.397	134.31
779.584	50.35
779.771	48.3
779.958	9.39
780.145	119.98
780.332	85.16
780.519	-76.63
780.706	-7
780.893	107.69
781.08	-60.24
781.267	-27.48
781.454	25.77
781.641	103.59
781.828	31.91
782.015	95.4
782.202	11.43
782.388	7.34
782.575	-58.2
782.762	25.77
782.949	-11.09
783.136	-68.44
783.323	76.97
783.509	148.65
783.696	29.87
783.883	-105.3
784.07	-27.48
784.257	136.36
784.443	-25.43
784.63	72.87
784.817	29.87
785.004	-74.58
785.19	42.15
785.377	-0.85
785.564	87.21
785.75	89.26
785.937	62.63
786.124	87.21
786.31	29.87
786.497	165.03
786.683	111.78
786.87	85.16
787.057	83.11
787.243	132.26
787.43	54.44
787.616	99.5
787.803	23.72
787.989	-15.19
788.176	-47.96
788.362	81.07
788.549	31.91
788.735	81.07
788.922	19.63
789.108	-64.34
789.295	74.92
789.481	87.21
789.668	42.15
789.854	74.92
790.04	17.58
790.227	11.43
790.413	42.15
790.599	62.63
790.786	5.29
790.972	119.98
791.158	66.73
791.345	-35.67
791.531	115.88
791.717	76.97
791.904	128.17
792.09	72.87
792.276	76.97
792.462	-13.14
792.649	-31.57
792.835	91.31
793.021	91.31
793.207	7.34
793.393	27.82
793.58	160.94
793.766	-27.48
793.952	-21.33
794.138	42.15
794.324	44.2
794.51	-27.48
794.696	33.96
794.882	5.29
795.069	-2.9
795.255	99.5
795.441	74.92
795.627	66.73
795.813	122.02
795.999	107.69
796.185	40.11
796.371	-50
796.557	119.98
796.743	46.25
796.929	5.29
797.115	99.5
797.3	36.01
797.486	197.8
797.672	132.26
797.858	66.73
798.044	40.11
798.23	-70.48
798.416	113.83
798.602	91.31
798.788	-17.24
798.973	13.48
799.159	109.74
799.345	-66.39
799.531	40.11
799.717	-72.53
799.902	19.63
800.088	-23.38
800.274	68.78
800.46	29.87
800.645	50.35
800.831	13.48
801.017	21.67
801.202	126.12
801.388	27.82
801.574	3.24
801.759	128.17
801.945	5.29
802.131	64.68
802.316	40.11
802.502	5.29
802.687	66.73
802.873	-35.67
803.058	-17.24
803.244	-68.44
803.43	91.31
803.615	42.15
803.801	-50
803.986	19.63
804.172	29.87
804.357	1.19
804.543	40.11
804.728	9.39
804.913	-68.44
805.099	31.91
805.284	-31.57
805.47	1.19
805.655	-11.09
805.84	52.39
806.026	76.97
806.211	66.73
806.397	97.45
806.582	-74.58
806.767	-37.72
806.953	1.19
807.138	113.83
807.323	62.63
807.508	48.3
807.694	17.58
807.879	68.78
808.064	3.24
808.249	83.11
808.435	66.73
808.62	-33.62
808.805	79.02
808.99	9.39
809.175	-39.76
809.361	56.49
809.546	-136.02
809.731	66.73
809.916	50.35
810.101	54.44
810.286	-41.81
810.471	50.35
810.656	5.29
810.841	11.43
811.026	193.7
811.211	40.11
811.396	9.39
811.581	142.5
811.766	-76.63
811.951	107.69
812.136	-11.09
812.321	46.25
812.506	48.3
812.691	-13.14
812.876	-52.05
813.061	81.07
813.246	15.53
813.431	-23.38
813.616	68.78
813.801	42.15
813.986	11.43
814.17	72.87
814.355	1.19
814.54	113.83
814.725	62.63
814.91	-7
815.094	-78.68
815.279	29.87
815.464	128.17
815.649	31.91
815.833	58.54
816.018	19.63
816.203	15.53
816.388	-2.9
816.572	72.87
816.757	42.15
816.942	38.06
817.126	23.72
817.311	72.87
817.496	119.98
817.68	70.83
817.865	68.78
818.049	9.39
818.234	-23.38
818.419	-60.24
818.603	91.31
818.788	-4.95
818.972	109.74
819.157	64.68
819.341	-54.1
819.526	76.97
819.71	27.82
819.895	117.93
820.079	50.35
820.264	9.39
820.448	101.55
820.633	-4.95
820.817	15.53
821.001	9.39
821.186	56.49
821.37	52.39
821.554	-29.52
821.739	-35.67
821.923	87.21
822.108	5.29
822.292	-35.67
822.476	60.59
822.66	74.92
822.845	38.06
823.029	103.59
823.213	31.91
823.398	7.34
823.582	42.15
823.766	142.5
823.95	-23.38
824.134	46.25
824.319	-19.29
824.503	-90.96
824.687	-13.14
824.871	-31.57
825.055	23.72
825.239	111.78
825.423	52.39
825.608	-35.67
825.792	-29.52
825.976	3.24
826.16	66.73
826.344	-7
826.528	101.55
826.712	17.58
826.896	-86.87
827.08	-29.52
827.264	60.59
827.448	64.68
827.632	-90.96
827.816	60.59
828	105.64
828.184	-88.92
828.368	115.88
828.552	74.92
828.736	-15.19
828.919	-52.05
829.103	66.73
829.287	83.11
829.471	72.87
829.655	58.54
829.839	126.12
830.023	5.29
830.206	119.98
830.39	-70.48
830.574	40.11
830.758	-29.52
830.941	25.77
831.125	13.48
831.309	-41.81
831.493	-13.14
831.676	9.39
831.86	-45.91
832.044	146.6
832.227	42.15
832.411	85.16
832.595	89.26
832.778	-23.38
832.962	64.68
833.146	117.93
833.329	23.72
833.513	-15.19
833.696	58.54
833.88	36.01
834.064	74.92
834.247	138.41
834.431	56.49
834.614	52.39
834.798	-27.48
834.981	54.44
835.165	46.25
835.348	-43.86
835.532	70.83
835.715	19.63
835.898	42.15
836.082	85.16
836.265	-78.68
836.449	27.82
836.632	7.34
836.815	136.36
836.999	52.39
837.182	-21.33
837.365	11.43
837.549	99.5
837.732	58.54
837.915	79.02
838.099	-35.67
838.282	27.82
838.465	15.53
838.648	-9.05
838.832	15.53
839.015	52.39
839.198	70.83
839.381	76.97
839.565	-90.96
839.748	87.21
839.931	-54.1
840.114	3.24
840.297	93.35
840.48	-25.43
840.663	1.19
840.847	46.25
841.03	33.96
841.213	17.58
841.396	-50
841.579	160.94
841.762	9.39
841.945	134.31
842.128	-37.72
842.311	33.96
842.494	111.78
842.677	-29.52
842.86	-4.95
843.043	-56.15
843.226	132.26
843.409	33.96
843.592	-2.9
843.775	17.58
843.958	56.49
844.141	38.06
844.323	3.24
844.506	44.2
844.689	38.06
844.872	-23.38
845.055	-86.87
845.238	68.78
845.42	-35.67
845.603	58.54
845.786	58.54
845.969	-56.15
846.152	95.4
846.334	21.67
846.517	60.59
846.7	27.82
846.883	9.39
847.065	38.06
847.248	-29.52
847.431	48.3
847.613	119.98
847.796	-2.9
847.979	3.24
848.161	128.17
848.344	7.34
848.526	21.67
848.709	13.48
848.892	40.11
849.074	-13.14
849.257	52.39
849.439	64.68
849.622	-68.44
849.804	1.19
849.987	52.39
850.169	74.92
850.352	97.45
850.534	-86.87
850.717	66.73
850.899	5.29
851.082	66.73
851.264	72.87
851.446	38.06
851.629	-58.2
851.811	72.87
851.994	13.48
852.176	54.44
852.358	38.06
852.541	40.11
852.723	56.49
852.905	115.88
853.088	64.68
853.27	60.59
853.452	31.91
853.635	3.24
853.817	36.01
853.999	85.16
854.181	-41.81
854.363	27.82
854.546	68.78
854.728	91.31
854.91	119.98
855.092	122.02
855.274	72.87
855.457	-2.9
855.639	46.25
855.821	-86.87
856.003	91.31
856.185	-15.19
856.367	-60.24
856.549	29.87
856.731	91.31
856.913	15.53
857.095	7.34
857.277	25.77
857.459	-4.95
857.641	64.68
857.823	-107.35
858.005	-70.48
858.187	81.07
858.369	152.74
858.551	-174.93
858.733	23.72
858.915	54.44
859.097	19.63
859.279	-39.76
859.461	109.74
859.643	11.43
859.824	11.43
860.006	-66.39
860.188	31.91
860.37	9.39
860.552	29.87
860.734	124.07
860.915	-9.05
861.097	44.2
861.279	134.31
861.461	-43.86
861.642	19.63
861.824	-25.43
862.006	83.11
862.188	19.63
862.369	117.93
862.551	70.83
862.733	-56.15
862.914	23.72
863.096	50.35
863.278	42.15
863.459	136.36
863.641	-93.01
863.822	-50
864.004	42.15
864.185	74.92
864.367	54.44
864.549	-121.68
864.73	5.29
864.912	105.64
865.093	21.67
865.275	-2.9
865.456	60.59
865.638	93.35
865.819	48.3
866.001	50.35
866.182	-25.43
866.363	72.87
866.545	-37.72
866.726	48.3
866.908	-97.11
867.089	97.45
867.27	-43.86
867.452	58.54
867.633	46.25
867.814	46.25
867.996	64.68
868.177	-19.29
868.358	9.39
868.54	-41.81
868.721	-7
868.902	97.45
869.083	5.29
869.265	54.44
869.446	40.11
869.627	-7
869.808	109.74
869.989	48.3
870.171	70.83
870.352	3.24
870.533	38.06
870.714	-13.14
870.895	15.53
871.076	124.07
871.257	81.07
871.438	1.19
871.619	58.54
871.801	191.66
871.982	-72.53
872.163	31.91
872.344	-78.68
872.525	-52.05
872.706	48.3
872.887	76.97
873.068	95.4
873.249	124.07
873.43	-39.76
873.61	-0.85
873.791	50.35
873.972	60.59
874.153	52.39
874.334	89.26
874.515	-93.01
874.696	-2.9
874.877	38.06
875.058	-60.24
875.238	105.64
875.419	-9.05
875.6	-31.57
875.781	-64.34
875.962	29.87
876.142	-31.57
876.323	138.41
876.504	-66.39
876.685	-84.82
876.865	99.5
877.046	83.11
877.227	113.83
877.407	11.43
877.588	52.39
877.769	101.55
877.949	5.29
878.13	1.19
878.311	-76.63
878.491	62.63
878.672	74.92
878.853	-17.24
879.033	89.26
879.214	68.78
879.394	44.2
879.575	48.3
879.755	-60.24
879.936	-68.44
880.116	-60.24
880.297	19.63
880.477	-29.52
880.658	-72.53
880.838	27.82
881.019	-4.95
881.199	-33.62
881.38	48.3
881.56	27.82
881.74	76.97
881.921	99.5
882.101	76.97
882.281	99.5
882.462	-35.67
882.642	21.67
882.822	-64.34
883.003	52.39
883.183	13.48
883.363	38.06
883.544	36.01
883.724	-37.72
883.904	64.68
884.084	5.29
884.265	-29.52
884.445	9.39
884.625	113.83
884.805	46.25
884.985	52.39
885.166	-27.48
885.346	56.49
885.526	113.83
885.706	195.75
885.886	58.54
886.066	17.58
886.246	11.43
886.426	44.2
886.606	40.11
886.787	-62.29
886.967	81.07
887.147	105.64
887.327	27.82
887.507	-19.29
887.687	74.92
887.867	-7
888.047	60.59
888.227	60.59
888.406	21.67
888.586	-115.54
888.766	89.26
888.946	97.45
889.126	29.87
889.306	66.73
889.486	66.73
889.666	1.19
889.846	17.58
890.025	68.78
890.205	148.65
890.385	107.69
890.565	58.54
890.745	93.35
890.924	56.49
891.104	19.63
891.284	74.92
891.464	107.69
891.643	109.74
891.823	-31.57
892.003	105.64
892.183	29.87
892.362	9.39
892.542	1.19
892.722	31.91
892.901	-31.57
893.081	-47.96
893.26	9.39
893.44	-35.67
893.62	85.16
893.799	-29.52
893.979	-29.52
894.158	-172.88
894.338	52.39
894.517	5.29
894.697	64.68
894.877	27.82
895.056	85.16
895.236	1.19
895.415	15.53
895.594	113.83
895.774	54.44
895.953	42.15
896.133	9.39
896.312	91.31
896.492	52.39
896.671	-41.81
896.85	-2.9
897.03	-7
897.209	66.73
897.388	25.77
897.568	5.29
897.747	31.91
897.926	-76.63
898.106	101.55
898.285	91.31
898.464	9.39
898.643	-66.39
898.823	50.35
899.002	-68.44
899.181	48.3
899.36	50.35
899.54	-4.95
899.719	-113.49
899.898	9.39
900.077	-23.38
900.256	56.49
900.435	19.63
900.614	-52.05
900.794	-17.24
900.973	70.83
901.152	29.87
901.331	154.79
901.51	-47.96
901.689	38.06
901.868	93.35
902.047	66.73
902.226	36.01
902.405	-23.38
902.584	-39.76
902.763	33.96
902.942	48.3
903.121	-4.95
903.3	19.63
903.479	-4.95
903.658	85.16
903.837	-35.67
904.015	52.39
904.194	107.69
904.373	31.91
904.552	36.01
904.731	-68.44
904.91	19.63
905.089	64.68
905.267	130.22
905.446	19.63
905.625	52.39
905.804	132.26
905.982	70.83
906.161	-29.52
906.34	-78.68
906.519	103.59
906.697	58.54
906.876	17.58
907.055	-13.14
907.233	132.26
907.412	68.78
907.591	-23.38
907.769	52.39
907.948	-11.09
908.127	-0.85
908.305	31.91
908.484	70.83
908.662	60.59
908.841	23.72
909.019	-29.52
909.198	-72.53
909.377	-41.81
909.555	13.48
909.734	101.55
909.912	89.26
910.09	97.45
910.269	19.63
910.447	103.59
910.626	113.83
910.804	-15.19
910.983	25.77
911.161	-41.81
911.339	5.29
911.518	31.91
911.696	-117.59
911.875	-17.24
912.053	154.79
912.231	-80.72
912.41	95.4
912.588	40.11
912.766	-60.24
912.944	9.39
913.123	70.83
913.301	44.2
913.479	15.53
913.657	36.01
913.836	95.4
914.014	29.87
914.192	-58.2
914.37	48.3
914.548	-0.85
914.727	89.26
914.905	91.31
915.083	7.34
915.261	109.74
915.439	64.68
915.617	76.97
915.795	17.58
915.973	-78.68
916.151	-15.19
916.329	38.06
916.508	29.87
916.686	15.53
916.864	40.11
917.042	27.82
917.22	107.69
917.398	62.63
917.575	13.48
917.753	56.49
917.931	42.15
918.109	-39.76
918.287	29.87
918.465	60.59
918.643	79.02
918.821	-86.87
918.999	40.11
919.177	56.49
919.354	115.88
919.532	85.16
919.71	-33.62
919.888	29.87
920.066	38.06
920.243	21.67
920.421	81.07
920.599	48.3
920.777	23.72
920.954	99.5
921.132	52.39
921.31	109.74
921.488	81.07
921.665	64.68
921.843	23.72
922.021	17.58
922.198	-21.33
922.376	68.78
922.553	66.73
922.731	81.07
922.909	-17.24
923.086	21.67
923.264	81.07
923.441	85.16
923.619	-31.57
923.796	33.96
923.974	25.77
924.152	-41.81
924.329	17.58
924.507	-25.43
924.684	62.63
924.861	89.26
925.039	115.88
925.216	9.39
925.394	42.15
925.571	99.5
925.749	89.26
925.926	64.68
926.103	-25.43
926.281	97.45
926.458	-33.62
926.635	56.49
926.813	11.43
926.99	48.3
927.167	-43.86
927.345	-0.85
927.522	48.3
927.699	87.21
927.876	68.78
928.054	-35.67
928.231	-56.15
928.408	-68.44
928.585	-31.57
928.763	-72.53
928.94	122.02
929.117	93.35
929.294	33.96
929.471	38.06
929.648	-11.09
929.825	93.35
930.003	17.58
930.18	-23.38
930.357	66.73
930.534	-52.05
930.711	95.4
930.888	87.21
931.065	27.82
931.242	-9.05
931.419	50.35
931.596	-2.9
931.773	1.19
931.95	44.2
932.127	-27.48
932.304	13.48
932.481	70.83
932.658	-148.31
932.835	58.54
933.011	58.54
933.188	44.2
933.365	111.78
933.542	79.02
933.719	83.11
933.896	136.36
934.073	-121.68
934.249	97.45
934.426	105.64
934.603	3.24
934.78	50.35
934.957	-0.85
935.133	150.7
935.31	130.22
935.487	9.39
935.664	79.02
935.84	81.07
936.017	42.15
936.194	99.5
936.37	-58.2
936.547	-13.14
936.724	48.3
936.9	-23.38
937.077	64.68
937.253	66.73
937.43	-39.76
937.607	58.54
937.783	-97.11
937.96	79.02
938.136	169.13
938.313	7.34
938.489	-17.24
938.666	89.26
938.842	64.68
939.019	-52.05
939.195	-97.11
939.372	52.39
939.548	130.22
939.725	23.72
939.901	13.48
940.077	101.55
940.254	3.24
940.43	-54.1
940.607	-50
940.783	40.11
940.959	-25.43
941.136	138.41
941.312	-39.76
941.488	38.06
941.665	29.87
941.841	79.02
942.017	91.31
942.193	46.25
942.37	31.91
942.546	95.4
942.722	62.63
942.898	27.82
943.074	7.34
943.251	128.17
943.427	33.96
943.603	128.17
943.779	42.15
943.955	-21.33
944.131	50.35
944.308	54.44
944.484	95.4
944.66	81.07
944.836	42.15
945.012	-27.48
945.188	21.67
945.364	181.42
945.54	-25.43
945.716	-99.16
945.892	44.2
946.068	31.91
946.244	1.19
946.42	154.79
946.596	101.55
946.772	42.15
946.948	46.25
947.124	-15.19
947.3	101.55
947.475	134.31
947.651	17.58
947.827	29.87
948.003	-23.38
948.179	93.35
948.355	-68.44
948.531	50.35
948.706	11.43
948.882	54.44
949.058	-125.78
949.234	48.3
949.409	33.96
949.585	-31.57
949.761	15.53
949.937	-62.29
950.112	25.77
950.288	142.5
950.464	171.18
950.639	103.59
950.815	48.3
950.991	38.06
951.166	15.53
951.342	76.97
951.518	23.72
951.693	83.11
951.869	-35.67
952.044	115.88
952.22	5.29
952.395	-11.09
952.571	9.39
952.747	81.07
952.922	15.53
953.098	109.74
953.273	89.26
953.448	17.58
953.624	-25.43
953.799	97.45
953.975	40.11
954.15	7.34
954.326	29.87
954.501	27.82
954.676	-72.53
954.852	-31.57
955.027	21.67
955.203	-33.62
955.378	134.31
955.553	58.54
955.729	-15.19
955.904	-80.72
956.079	93.35
956.254	66.73
956.43	-29.52
956.605	89.26
956.78	-62.29
956.955	146.6
957.131	-11.09
957.306	64.68
957.481	15.53
957.656	17.58
957.831	17.58
958.007	54.44
958.182	27.82
958.357	83.11
958.532	-31.57
958.707	76.97
958.882	119.98
959.057	-7
959.232	1.19
959.407	-52.05
959.582	68.78
959.757	189.61
959.932	66.73
960.107	79.02
960.282	87.21
960.457	115.88
960.632	-19.29
960.807	58.54
960.982	-0.85
961.157	11.43
961.332	7.34
961.507	-56.15
961.682	-39.76
961.857	40.11
962.032	-17.24
962.206	-162.64
962.381	68.78
962.556	128.17
962.731	74.92
962.906	36.01
963.081	54.44
963.255	-19.29
963.43	-21.33
963.605	46.25
963.78	-33.62
963.954	9.39
964.129	58.54
964.304	60.59
964.479	-15.19
964.653	-19.29
964.828	-27.48
965.003	-13.14
965.177	44.2
965.352	-4.95
965.526	101.55
965.701	62.63
965.876	119.98
966.05	-68.44
966.225	7.34
966.399	-13.14
966.574	-37.72
966.748	-23.38
966.923	36.01
967.098	-0.85
967.272	-45.91
967.446	-64.34
967.621	-60.24
967.795	72.87
967.97	66.73
968.144	105.64
968.319	7.34
968.493	-11.09
968.668	33.96
968.842	70.83
969.016	79.02
969.191	42.15
969.365	-13.14
969.539	101.55
969.714	54.44
969.888	-0.85
970.062	-47.96
970.237	119.98
970.411	31.91
970.585	128.17
970.759	42.15
970.934	-21.33
971.108	64.68
971.282	-7
971.456	-131.92
971.63	74.92
971.805	-35.67
971.979	60.59
972.153	-37.72
972.327	23.72
972.501	68.78
972.675	50.35
972.849	-4.95
973.024	122.02
973.198	-15.19
973.372	-84.82
973.546	103.59
973.72	85.16
973.894	1.19
974.068	29.87
974.242	68.78
974.416	7.34
974.59	21.67
974.764	-27.48
974.938	-95.06
975.112	-15.19
975.286	13.48
975.46	42.15
975.633	-74.58
975.807	25.77
975.981	66.73
976.155	72.87
976.329	119.98
976.503	74.92
976.677	66.73
976.85	36.01
977.024	-13.14
977.198	17.58
977.372	-54.1
977.546	70.83
977.719	-117.59
977.893	87.21
978.067	15.53
978.241	23.72
978.414	-62.29
978.588	1.19
978.762	38.06
978.935	152.74
979.109	52.39
979.283	46.25
979.456	101.55
979.63	17.58
979.804	1.19
979.977	25.77
980.151	-52.05
980.324	62.63
980.498	85.16
980.671	46.25
980.845	-31.57
981.018	-19.29
981.192	-45.91
981.365	85.16
981.539	79.02
981.712	-15.19
981.886	-37.72
982.059	-7
982.233	11.43
982.406	-23.38
982.58	42.15
982.753	38.06
982.926	-33.62
983.1	44.2
983.273	33.96
983.446	76.97
983.62	85.16
983.793	117.93
983.966	38.06
984.14	66.73
984.313	23.72
984.486	31.91
984.66	19.63
984.833	113.83
985.006	-17.24
985.179	93.35
985.352	-29.52
985.526	-66.39
985.699	-23.38
985.872	42.15
986.045	81.07
986.218	25.77
986.391	11.43
986.565	62.63
986.738	9.39
986.911	-13.14
987.084	15.53
987.257	36.01
987.43	-90.96
987.603	97.45
987.776	21.67
987.949	33.96
988.122	9.39
988.295	-84.82
988.468	-27.48
988.641	40.11
988.814	-4.95
988.987	-70.48
989.16	40.11
989.333	-11.09
989.506	50.35
989.679	-74.58
989.852	91.31
990.025	56.49
990.197	66.73
990.37	89.26
990.543	-84.82
990.716	31.91
990.889	68.78
991.062	-41.81
991.234	3.24
991.407	5.29
991.58	99.5
991.753	-27.48
991.925	17.58
992.098	-9.05
992.271	-25.43
992.444	85.16
992.616	-62.29
992.789	115.88
992.962	58.54
993.134	87.21
993.307	36.01
993.479	-33.62
993.652	87.21
993.825	36.01
993.997	46.25
994.17	-37.72
994.342	3.24
994.515	-31.57
994.688	27.82
994.86	64.68
995.033	33.96
995.205	124.07
995.378	87.21
995.55	25.77
995.723	-11.09
995.895	124.07
996.067	115.88
996.24	-0.85
996.412	15.53
996.585	38.06
996.757	89.26
996.929	50.35
997.102	-25.43
997.274	-29.52
997.447	56.49
997.619	-45.91
997.791	148.65
997.964	-13.14
998.136	48.3
998.308	101.55
998.48	3.24
998.653	38.06
998.825	9.39
998.997	-13.14
999.169	-41.81
999.342	105.64
999.514	1.19
999.686	-2.9
999.858	58.54
1000.03	60.59
1000.202	-13.14
1000.374	-125.78
1000.547	36.01
1000.719	-11.09
1000.891	44.2
1001.063	38.06
1001.235	60.59
1001.407	-45.91
1001.579	-4.95
1001.751	19.63
1001.923	-25.43
1002.095	21.67
1002.267	99.5
1002.439	-68.44
1002.611	13.48
1002.783	105.64
1002.955	76.97
1003.127	56.49
1003.299	31.91
1003.471	3.24
1003.643	95.4
1003.815	-54.1
1003.986	25.77
1004.158	113.83
1004.33	27.82
1004.502	-13.14
1004.674	29.87
1004.846	103.59
1005.017	-35.67
1005.189	56.49
1005.361	17.58
1005.533	56.49
1005.704	25.77
1005.876	36.01
1006.048	15.53
1006.22	48.3
1006.391	54.44
1006.563	33.96
1006.735	17.58
1006.906	-54.1
1007.078	-174.93
1007.25	17.58
1007.421	17.58
1007.593	13.48
1007.764	48.3
1007.936	117.93
1008.108	-11.09
1008.279	25.77
1008.451	-11.09
1008.622	134.31
1008.794	70.83
1008.965	72.87
1009.137	48.3
1009.308	42.15
1009.48	48.3
1009.651	68.78
1009.823	58.54
1009.994	-62.29
1010.165	42.15
1010.337	-33.62
1010.508	38.06
1010.68	126.12
1010.851	29.87
1011.022	-62.29
1011.194	-39.76
1011.365	-78.68
1011.536	29.87
1011.708	-27.48
1011.879	89.26
1012.05	60.59
1012.222	97.45
1012.393	23.72
1012.564	66.73
1012.735	68.78
1012.906	-9.05
1013.078	72.87
1013.249	3.24
1013.42	-80.72
1013.591	5.29
1013.762	156.84
1013.934	7.34
1014.105	-19.29
1014.276	136.36
1014.447	40.11
1014.618	144.55
1014.789	156.84
1014.96	109.74
1015.131	1.19
1015.302	-9.05
1015.473	36.01
1015.644	-13.14
1015.815	-88.92
1015.986	33.96
1016.157	44.2
1016.328	38.06
1016.499	46.25
1016.67	-47.96
1016.841	31.91
1017.012	126.12
1017.183	21.67
1017.354	-9.05
1017.525	17.58
1017.696	-13.14
1017.867	-21.33
1018.037	87.21
1018.208	119.98
1018.379	9.39
1018.55	-21.33
1018.721	33.96
1018.891	27.82
1019.062	58.54
1019.233	23.72
1019.404	19.63
1019.574	-27.48
1019.745	-62.29
1019.916	-0.85
1020.087	17.58
1020.257	-66.39
1020.428	-101.2
1020.599	46.25
1020.769	-31.57
1020.94	-47.96
1021.11	-17.24
1021.281	-37.72
1021.452	134.31
1021.622	-93.01
1021.793	13.48
1021.963	91.31
1022.134	-43.86
1022.305	-37.72
1022.475	107.69
1022.646	150.7
1022.816	38.06
1022.987	38.06
1023.157	70.83
1023.327	7.34
1023.498	44.2
1023.668	105.64
1023.839	9.39
1024.009	-43.86
1024.18	58.54
1024.35	83.11
1024.52	85.16
1024.691	58.54
1024.861	19.63
1025.031	79.02
1025.202	-13.14
1025.372	83.11
1025.542	-47.96
1025.713	58.54
1025.883	91.31
1026.053	40.11
1026.223	33.96
1026.394	62.63
1026.564	-4.95
1026.734	-21.33
1026.904	19.63
1027.074	-70.48
1027.245	68.78
1027.415	7.34
1027.585	103.59
1027.755	-72.53
1027.925	-103.25
1028.095	103.59
1028.265	93.35
1028.435	-21.33
1028.606	13.48
1028.776	-19.29
1028.946	64.68
1029.116	76.97
1029.286	3.24
1029.456	38.06
1029.626	11.43
1029.796	76.97
1029.966	113.83
1030.136	-39.76
1030.306	9.39
1030.475	66.73
1030.645	-39.76
1030.815	23.72
1030.985	11.43
1031.155	70.83
1031.325	-4.95
1031.495	-17.24
1031.665	-4.95
1031.835	128.17
1032.004	62.63
1032.174	50.35
1032.344	-29.52
1032.514	21.67
1032.684	11.43
1032.853	-11.09
1033.023	87.21
1033.193	111.78
1033.362	-17.24
1033.532	11.43
1033.702	-54.1
1033.872	87.21
1034.041	38.06
1034.211	140.46
1034.381	-82.77
1034.55	-9.05
1034.72	-17.24
1034.889	76.97
1035.059	130.22
1035.229	54.44
1035.398	-70.48
1035.568	79.02
1035.737	-19.29
1035.907	1.19
1036.076	-27.48
1036.246	-37.72
1036.415	62.63
1036.585	-35.67
1036.754	-13.14
1036.924	-39.76
1037.093	33.96
1037.263	-72.53
1037.432	115.88
1037.601	-27.48
1037.771	-56.15
1037.94	93.35
1038.11	-50
1038.279	-50
1038.448	-9.05
1038.618	9.39
1038.787	85.16
1038.956	-45.91
1039.126	-37.72
1039.295	85.16
1039.464	56.49
1039.633	50.35
1039.803	-101.2
1039.972	144.55
1040.141	-11.09
1040.31	27.82
1040.479	-0.85
1040.649	60.59
1040.818	-41.81
1040.987	-9.05
1041.156	36.01
1041.325	-31.57
1041.494	-74.58
1041.663	31.91
1041.833	31.91
1042.002	56.49
1042.171	3.24
1042.34	-66.39
1042.509	83.11
1042.678	58.54
