Data from LSP58_S8_Subt2_15-47-47-402.txt Node
Date: Wed Aug 09 15:47:47 EDT 2023
User: Emmanuel
Spectrometer: USB4A00615
Scans to average: 1
Trigger mode: 1
Integration Time (sec): 1.300000E-2
Electric dark correction enabled: true
Boxcar width: 0
XAxis mode: Wavelengths
Number of Pixels in Spectrum: 3648
>>>>>Begin Spectral Data<<<<<
346.606	-108.2
346.818	-108.2
347.029	-108.2
347.241	108.88
347.452	110.93
347.664	12.63
347.876	4.44
348.087	-36.52
348.299	47.44
348.51	-11.95
348.722	-42.67
348.933	-1.71
349.145	-16.04
349.356	2.39
349.568	-54.95
349.779	55.64
349.991	41.3
350.202	-9.9
350.414	104.79
350.625	-26.28
350.836	35.16
351.048	92.5
351.259	-3.75
351.471	43.35
351.682	67.92
351.893	-5.8
352.105	8.53
352.316	16.73
352.527	26.96
352.739	-26.28
352.95	29.01
353.161	-77.48
353.372	-11.95
353.584	43.35
353.795	102.74
354.006	104.79
354.217	35.16
354.429	49.49
354.64	-59.05
354.851	10.58
355.062	16.73
355.274	6.49
355.485	-81.58
355.696	0.34
355.907	-65.19
356.118	-13.99
356.329	129.36
356.54	-65.19
356.752	-36.52
356.963	88.4
357.174	100.69
357.385	39.25
357.596	29.01
357.807	-7.85
358.018	18.77
358.229	117.08
358.44	-67.24
358.651	59.73
358.862	10.58
359.073	33.11
359.284	-3.75
359.495	18.77
359.706	18.77
359.917	31.06
360.128	45.4
360.339	-32.43
360.55	53.59
360.761	-20.14
360.972	6.49
361.182	20.82
361.393	94.55
361.604	61.78
361.815	39.25
362.026	137.56
362.237	33.11
362.447	4.44
362.658	55.64
362.869	82.26
363.08	18.77
363.291	-81.58
363.501	108.88
363.712	119.12
363.923	67.92
364.134	-22.19
364.344	45.4
364.555	112.98
364.766	41.3
364.976	72.02
365.187	-1.71
365.398	-7.85
365.608	4.44
365.819	4.44
366.03	-34.47
366.24	127.32
366.451	-50.86
366.662	112.98
366.872	45.4
367.083	96.6
367.293	-1.71
367.504	51.54
367.714	29.01
367.925	84.31
368.135	6.49
368.346	-16.04
368.557	55.64
368.767	41.3
368.977	20.82
369.188	4.44
369.398	117.08
369.609	123.22
369.819	-22.19
370.03	59.73
370.24	69.97
370.451	31.06
370.661	22.87
370.871	98.64
371.082	88.4
371.292	145.75
371.502	88.4
371.713	10.58
371.923	-81.58
372.133	57.68
372.344	94.55
372.554	69.97
372.764	39.25
372.975	0.34
373.185	55.64
373.395	-52.91
373.605	-36.52
373.816	31.06
374.026	145.75
374.236	-54.95
374.446	59.73
374.656	-42.67
374.867	39.25
375.077	45.4
375.287	110.93
375.497	92.5
375.707	10.58
375.917	4.44
376.127	47.44
376.338	16.73
376.548	-32.43
376.758	51.54
376.968	51.54
377.178	35.16
377.388	72.02
377.598	2.39
377.808	-59.05
378.018	149.84
378.228	-73.39
378.438	45.4
378.648	-83.63
378.858	121.17
379.068	-61.1
379.278	49.49
379.488	51.54
379.698	-3.75
379.908	-3.75
380.118	29.01
380.327	43.35
380.537	-77.48
380.747	-67.24
380.957	74.07
381.167	-71.34
381.377	65.88
381.587	82.26
381.796	86.36
382.006	8.53
382.216	82.26
382.426	78.16
382.636	45.4
382.845	-24.23
383.055	119.12
383.265	78.16
383.475	88.4
383.684	12.63
383.894	37.2
384.104	-106.15
384.313	55.64
384.523	-30.38
384.733	49.49
384.942	-85.67
385.152	24.92
385.362	-83.63
385.571	20.82
385.781	59.73
385.991	-30.38
386.2	88.4
386.41	-120.49
386.619	82.26
386.829	65.88
387.038	-71.34
387.248	125.27
387.457	98.64
387.667	69.97
387.876	-20.14
388.086	-28.33
388.295	22.87
388.505	166.23
388.714	82.26
388.924	-13.99
389.133	129.36
389.343	-5.8
389.552	-30.38
389.762	59.73
389.971	8.53
390.18	16.73
390.39	141.65
390.599	45.4
390.808	0.34
391.018	22.87
391.227	6.49
391.436	-16.04
391.646	82.26
391.855	45.4
392.064	-44.71
392.274	133.46
392.483	-13.99
392.692	78.16
392.901	29.01
393.111	6.49
393.32	12.63
393.529	84.31
393.738	-48.81
393.947	22.87
394.157	131.41
394.366	110.93
394.575	-9.9
394.784	-24.23
394.993	-87.72
395.202	37.2
395.411	63.83
395.62	117.08
395.83	86.36
396.039	-50.86
396.248	-136.87
396.457	76.12
396.666	-59.05
396.875	-11.95
397.084	12.63
397.293	29.01
397.502	-42.67
397.711	-85.67
397.92	-3.75
398.129	-11.95
398.338	-48.81
398.547	20.82
398.756	37.2
398.965	147.8
399.174	29.01
399.382	20.82
399.591	-34.47
399.8	29.01
400.009	-24.23
400.218	33.11
400.427	117.08
400.636	37.2
400.844	47.44
401.053	76.12
401.262	-61.1
401.471	135.51
401.68	-48.81
401.888	29.01
402.097	110.93
402.306	-42.67
402.515	4.44
402.723	100.69
402.932	20.82
403.141	74.07
403.35	16.73
403.558	-40.62
403.767	22.87
403.976	-52.91
404.184	47.44
404.393	26.96
404.602	31.06
404.81	10.58
405.019	-59.05
405.227	88.4
405.436	-9.9
405.645	37.2
405.853	16.73
406.062	-50.86
406.27	223.57
406.479	-18.09
406.687	-26.28
406.896	-79.53
407.104	61.78
407.313	-7.85
407.521	24.92
407.73	45.4
407.938	43.35
408.147	14.68
408.355	12.63
408.563	92.5
408.772	20.82
408.98	166.23
409.189	49.49
409.397	129.36
409.605	24.92
409.814	63.83
410.022	26.96
410.23	59.73
410.439	90.45
410.647	51.54
410.855	-65.19
411.064	39.25
411.272	49.49
411.48	82.26
411.688	41.3
411.897	29.01
412.105	-7.85
412.313	119.12
412.521	-34.47
412.73	188.75
412.938	-38.57
413.146	-67.24
413.354	22.87
413.562	-13.99
413.77	110.93
413.979	74.07
414.187	55.64
414.395	-59.05
414.603	-16.04
414.811	8.53
415.019	0.34
415.227	16.73
415.435	10.58
415.643	86.36
415.851	-5.8
416.059	67.92
416.267	6.49
416.475	55.64
416.683	-1.71
416.891	92.5
417.099	65.88
417.307	100.69
417.515	22.87
417.723	59.73
417.931	61.78
418.139	131.41
418.347	35.16
418.555	119.12
418.763	125.27
418.971	0.34
419.179	-61.1
419.386	108.88
419.594	10.58
419.802	6.49
420.01	4.44
420.218	72.02
420.426	-20.14
420.633	78.16
420.841	72.02
421.049	-67.24
421.257	-3.75
421.464	35.16
421.672	92.5
421.88	-11.95
422.088	6.49
422.295	41.3
422.503	129.36
422.711	178.51
422.918	82.26
423.126	18.77
423.334	-24.23
423.541	-3.75
423.749	-32.43
423.956	37.2
424.164	8.53
424.372	37.2
424.579	-67.24
424.787	-18.09
424.994	121.17
425.202	-57
425.409	0.34
425.617	98.64
425.824	-87.72
426.032	-40.62
426.239	-46.76
426.447	41.3
426.654	-13.99
426.862	63.83
427.069	8.53
427.277	35.16
427.484	55.64
427.692	88.4
427.899	24.92
428.106	49.49
428.314	67.92
428.521	92.5
428.728	39.25
428.936	16.73
429.143	76.12
429.351	102.74
429.558	96.6
429.765	12.63
429.972	88.4
430.18	41.3
430.387	127.32
430.594	2.39
430.801	67.92
431.009	4.44
431.216	29.01
431.423	139.6
431.63	-9.9
431.838	82.26
432.045	22.87
432.252	90.45
432.459	110.93
432.666	6.49
432.873	31.06
433.081	-52.91
433.288	26.96
433.495	-97.96
433.702	-67.24
433.909	8.53
434.116	110.93
434.323	-16.04
434.53	63.83
434.737	125.27
434.944	69.97
435.151	-50.86
435.358	-124.58
435.565	74.07
435.772	-42.67
435.979	76.12
436.186	102.74
436.393	31.06
436.6	145.75
436.807	4.44
437.014	90.45
437.221	4.44
437.428	74.07
437.635	51.54
437.841	151.89
438.048	-18.09
438.255	2.39
438.462	-44.71
438.669	47.44
438.876	-20.14
439.082	-1.71
439.289	8.53
439.496	-44.71
439.703	-81.58
439.91	-114.34
440.116	24.92
440.323	45.4
440.53	39.25
440.737	-50.86
440.943	65.88
441.15	106.84
441.357	-106.15
441.563	41.3
441.77	-9.9
441.977	10.58
442.183	-30.38
442.39	65.88
442.597	-108.2
442.803	-32.43
443.01	24.92
443.216	-124.58
443.423	164.18
443.63	-7.85
443.836	117.08
444.043	-67.24
444.249	20.82
444.456	26.96
444.662	-11.95
444.869	-57
445.075	-22.19
445.282	0.34
445.488	-9.9
445.695	-28.33
445.901	8.53
446.107	108.88
446.314	-73.39
446.52	88.4
446.727	74.07
446.933	-7.85
447.139	53.59
447.346	98.64
447.552	-38.57
447.759	-24.23
447.965	4.44
448.171	76.12
448.378	-5.8
448.584	61.78
448.79	106.84
448.996	-1.71
449.203	67.92
449.409	-40.62
449.615	94.55
449.821	-54.95
450.028	41.3
450.234	14.68
450.44	53.59
450.646	69.97
450.852	-73.39
451.059	20.82
451.265	4.44
451.471	-83.63
451.677	49.49
451.883	90.45
452.089	74.07
452.295	74.07
452.502	-48.81
452.708	6.49
452.914	119.12
453.12	86.36
453.326	47.44
453.532	112.98
453.738	-32.43
453.944	90.45
454.15	-3.75
454.356	106.84
454.562	-36.52
454.768	43.35
454.974	-22.19
455.18	147.8
455.386	43.35
455.592	67.92
455.798	96.6
456.003	49.49
456.209	76.12
456.415	24.92
456.621	115.03
456.827	102.74
457.033	55.64
457.239	41.3
457.444	-52.91
457.65	55.64
457.856	-5.8
458.062	41.3
458.268	-40.62
458.473	33.11
458.679	53.59
458.885	65.88
459.091	78.16
459.296	47.44
459.502	-46.76
459.708	47.44
459.914	-48.81
460.119	4.44
460.325	-102.06
460.531	-7.85
460.736	67.92
460.942	41.3
461.147	45.4
461.353	45.4
461.559	2.39
461.764	29.01
461.97	8.53
462.175	-18.09
462.381	86.36
462.587	0.34
462.792	-112.3
462.998	92.5
463.203	51.54
463.409	-36.52
463.614	69.97
463.82	29.01
464.025	88.4
464.231	10.58
464.436	39.25
464.641	-7.85
464.847	112.98
465.052	6.49
465.258	-22.19
465.463	74.07
465.669	86.36
465.874	41.3
466.079	41.3
466.285	106.84
466.49	82.26
466.695	69.97
466.901	102.74
467.106	-71.34
467.311	-61.1
467.516	14.68
467.722	-13.99
467.927	0.34
468.132	31.06
468.338	-1.71
468.543	41.3
468.748	4.44
468.953	18.77
469.158	-22.19
469.364	16.73
469.569	82.26
469.774	72.02
469.979	-11.95
470.184	24.92
470.389	65.88
470.594	22.87
470.8	72.02
471.005	57.68
471.21	-77.48
471.415	86.36
471.62	51.54
471.825	112.98
472.03	57.68
472.235	6.49
472.44	35.16
472.645	92.5
472.85	108.88
473.055	18.77
473.26	69.97
473.465	-46.76
473.67	-9.9
473.875	74.07
474.08	31.06
474.285	172.37
474.49	0.34
474.695	78.16
474.899	121.17
475.104	20.82
475.309	10.58
475.514	35.16
475.719	-34.47
475.924	125.27
476.128	-3.75
476.333	-30.38
476.538	24.92
476.743	223.57
476.948	-73.39
477.152	53.59
477.357	-22.19
477.562	151.89
477.767	10.58
477.971	18.77
478.176	14.68
478.381	-20.14
478.585	80.21
478.79	4.44
478.995	-32.43
479.199	-1.71
479.404	55.64
479.609	22.87
479.813	8.53
480.018	18.77
480.223	51.54
480.427	102.74
480.632	74.07
480.836	43.35
481.041	90.45
481.245	69.97
481.45	18.77
481.654	-18.09
481.859	-22.19
482.063	67.92
482.268	72.02
482.472	-16.04
482.677	67.92
482.881	12.63
483.086	-28.33
483.29	102.74
483.495	80.21
483.699	-7.85
483.903	-28.33
484.108	53.59
484.312	72.02
484.517	33.11
484.721	41.3
484.925	-65.19
485.13	-22.19
485.334	-81.58
485.538	-16.04
485.743	18.77
485.947	-18.09
486.151	55.64
486.355	-38.57
486.56	-28.33
486.764	-30.38
486.968	0.34
487.172	8.53
487.377	-18.09
487.581	37.2
487.785	82.26
487.989	158.03
488.193	-112.3
488.397	53.59
488.602	26.96
488.806	-24.23
489.01	59.73
489.214	59.73
489.418	127.32
489.622	-87.72
489.826	39.25
490.03	49.49
490.234	33.11
490.438	51.54
490.642	-1.71
490.846	84.31
491.05	-59.05
491.254	-263.85
491.458	190.8
491.662	-57
491.866	180.56
492.07	-30.38
492.274	14.68
492.478	47.44
492.682	158.03
492.886	-16.04
493.09	20.82
493.294	96.6
493.498	37.2
493.701	14.68
493.905	135.51
494.109	6.49
494.313	22.87
494.517	45.4
494.721	186.71
494.924	35.16
495.128	90.45
495.332	65.88
495.536	8.53
495.739	-54.95
495.943	61.78
496.147	78.16
496.351	115.03
496.554	-3.75
496.758	-91.82
496.962	6.49
497.165	-11.95
497.369	41.3
497.573	139.6
497.776	18.77
497.98	6.49
498.184	-61.1
498.387	-36.52
498.591	-13.99
498.794	84.31
498.998	16.73
499.202	125.27
499.405	24.92
499.609	82.26
499.812	14.68
500.016	-77.48
500.219	8.53
500.423	8.53
500.626	-3.75
500.83	51.54
501.033	31.06
501.237	-52.91
501.44	78.16
501.643	-5.8
501.847	-44.71
502.05	49.49
502.254	-87.72
502.457	84.31
502.66	35.16
502.864	162.13
503.067	-36.52
503.271	43.35
503.474	88.4
503.677	160.08
503.88	-22.19
504.084	98.64
504.287	-54.95
504.49	96.6
504.694	-13.99
504.897	-50.86
505.1	53.59
505.303	74.07
505.507	10.58
505.71	-59.05
505.913	133.46
506.116	41.3
506.319	61.78
506.522	63.83
506.726	151.89
506.929	-36.52
507.132	-28.33
507.335	69.97
507.538	-42.67
507.741	47.44
507.944	-11.95
508.147	8.53
508.35	-81.58
508.553	49.49
508.756	-61.1
508.959	123.22
509.163	96.6
509.366	67.92
509.569	-1.71
509.771	0.34
509.974	49.49
510.177	26.96
510.38	16.73
510.583	90.45
510.786	-67.24
510.989	8.53
511.192	106.84
511.395	55.64
511.598	69.97
511.801	72.02
512.004	-57
512.206	-79.53
512.409	31.06
512.612	-30.38
512.815	41.3
513.018	37.2
513.22	147.8
513.423	110.93
513.626	47.44
513.829	-16.04
514.032	-87.72
514.234	29.01
514.437	31.06
514.64	129.36
514.842	-22.19
515.045	47.44
515.248	-13.99
515.45	131.41
515.653	-79.53
515.856	88.4
516.058	-63.15
516.261	119.12
516.464	-38.57
516.666	63.83
516.869	57.68
517.071	43.35
517.274	92.5
517.477	-40.62
517.679	96.6
517.882	59.73
518.084	43.35
518.287	-13.99
518.489	51.54
518.692	18.77
518.894	110.93
519.097	141.65
519.299	59.73
519.501	-30.38
519.704	76.12
519.906	35.16
520.109	112.98
520.311	49.49
520.514	117.08
520.716	8.53
520.918	-32.43
521.121	31.06
521.323	-38.57
521.525	53.59
521.728	63.83
521.93	-34.47
522.132	41.3
522.335	26.96
522.537	49.49
522.739	94.55
522.941	-9.9
523.144	20.82
523.346	74.07
523.548	74.07
523.75	31.06
523.952	0.34
524.155	67.92
524.357	69.97
524.559	-54.95
524.761	33.11
524.963	-16.04
525.165	22.87
525.368	-65.19
525.57	86.36
525.772	104.79
525.974	-83.63
526.176	47.44
526.378	41.3
526.58	110.93
526.782	22.87
526.984	53.59
527.186	12.63
527.388	104.79
527.59	65.88
527.792	84.31
527.994	53.59
528.196	53.59
528.398	29.01
528.6	115.03
528.802	96.6
529.004	78.16
529.206	41.3
529.408	86.36
529.609	4.44
529.811	108.88
530.013	65.88
530.215	78.16
530.417	53.59
530.619	55.64
530.821	80.21
531.022	67.92
531.224	26.96
531.426	88.4
531.628	80.21
531.829	-18.09
532.031	139.6
532.233	-36.52
532.435	-1.71
532.636	-7.85
532.838	74.07
533.04	16.73
533.241	-40.62
533.443	65.88
533.645	164.18
533.846	26.96
534.048	-7.85
534.25	129.36
534.451	49.49
534.653	-97.96
534.855	49.49
535.056	-44.71
535.258	35.16
535.459	37.2
535.661	41.3
535.862	55.64
536.064	96.6
536.265	26.96
536.467	78.16
536.668	37.2
536.87	20.82
537.071	-48.81
537.273	8.53
537.474	-61.1
537.676	6.49
537.877	74.07
538.078	20.82
538.28	53.59
538.481	-50.86
538.683	65.88
538.884	65.88
539.085	-75.43
539.287	33.11
539.488	149.84
539.689	10.58
539.891	110.93
540.092	-1.71
540.293	24.92
540.495	84.31
540.696	8.53
540.897	-28.33
541.098	20.82
541.3	98.64
541.501	-54.95
541.702	78.16
541.903	16.73
542.104	45.4
542.306	-11.95
542.507	67.92
542.708	76.12
542.909	-36.52
543.11	84.31
543.311	6.49
543.512	-18.09
543.713	-9.9
543.915	8.53
544.116	76.12
544.317	74.07
544.518	137.56
544.719	53.59
544.92	16.73
545.121	-32.43
545.322	4.44
545.523	-32.43
545.724	102.74
545.925	10.58
546.126	2.39
546.327	141.65
546.528	43.35
546.729	49.49
546.929	-69.29
547.13	-63.15
547.331	31.06
547.532	8.53
547.733	55.64
547.934	45.4
548.135	33.11
548.336	131.41
548.536	16.73
548.737	-32.43
548.938	49.49
549.139	20.82
549.34	61.78
549.54	33.11
549.741	31.06
549.942	47.44
550.143	-331.43
550.343	119.12
550.544	37.2
550.745	47.44
550.945	43.35
551.146	53.59
551.347	14.68
551.547	65.88
551.748	10.58
551.949	-65.19
552.149	67.92
552.35	-22.19
552.551	100.69
552.751	18.77
552.952	61.78
553.152	39.25
553.353	-116.39
553.553	-9.9
553.754	26.96
553.954	47.44
554.155	22.87
554.356	6.49
554.556	20.82
554.756	-13.99
554.957	-30.38
555.157	-16.04
555.358	145.75
555.558	16.73
555.759	67.92
555.959	53.59
556.159	-42.67
556.36	12.63
556.56	14.68
556.761	-32.43
556.961	31.06
557.161	-190.12
557.362	151.89
557.562	24.92
557.762	57.68
557.963	22.87
558.163	88.4
558.363	55.64
558.563	22.87
558.764	76.12
558.964	61.78
559.164	18.77
559.364	43.35
559.565	-50.86
559.765	84.31
559.965	47.44
560.165	26.96
560.365	-16.04
560.565	-24.23
560.766	2.39
560.966	84.31
561.166	-13.99
561.366	39.25
561.566	78.16
561.766	33.11
561.966	12.63
562.166	112.98
562.366	51.54
562.566	88.4
562.766	10.58
562.966	-106.15
563.166	-36.52
563.366	108.88
563.566	-63.15
563.766	45.4
563.966	49.49
564.166	45.4
564.366	35.16
564.566	61.78
564.766	57.68
564.966	2.39
565.166	-11.95
565.366	4.44
565.565	20.82
565.765	-11.95
565.965	26.96
566.165	67.92
566.365	69.97
566.565	76.12
566.764	72.02
566.964	35.16
567.164	-13.99
567.364	67.92
567.564	39.25
567.763	22.87
567.963	57.68
568.163	-38.57
568.362	104.79
568.562	49.49
568.762	-24.23
568.961	39.25
569.161	45.4
569.361	65.88
569.56	43.35
569.76	-44.71
569.96	121.17
570.159	-20.14
570.359	-91.82
570.558	59.73
570.758	127.32
570.958	-11.95
571.157	72.02
571.357	125.27
571.556	-13.99
571.756	35.16
571.955	72.02
572.155	-40.62
572.354	-5.8
572.554	-9.9
572.753	10.58
572.953	18.77
573.152	61.78
573.351	-44.71
573.551	43.35
573.75	16.73
573.95	57.68
574.149	65.88
574.348	-22.19
574.548	2.39
574.747	0.34
574.946	102.74
575.146	26.96
575.345	65.88
575.544	-116.39
575.744	-28.33
575.943	-95.91
576.142	104.79
576.342	2.39
576.541	92.5
576.74	8.53
576.939	51.54
577.138	61.78
577.338	90.45
577.537	-122.54
577.736	-40.62
577.935	59.73
578.134	78.16
578.333	10.58
578.533	-7.85
578.732	-13.99
578.931	-34.47
579.13	-40.62
579.329	69.97
579.528	-71.34
579.727	26.96
579.926	-26.28
580.125	65.88
580.324	41.3
580.523	131.41
580.722	-38.57
580.921	8.53
581.12	47.44
581.319	2.39
581.518	125.27
581.717	29.01
581.916	8.53
582.115	20.82
582.314	22.87
582.513	10.58
582.712	-38.57
582.911	84.31
583.109	-122.54
583.308	18.77
583.507	4.44
583.706	74.07
583.905	-20.14
584.104	18.77
584.302	-22.19
584.501	-18.09
584.7	-46.76
584.899	-22.19
585.098	35.16
585.296	86.36
585.495	-36.52
585.694	0.34
585.892	49.49
586.091	16.73
586.29	39.25
586.488	-36.52
586.687	53.59
586.886	24.92
587.084	65.88
587.283	29.01
587.482	49.49
587.68	-11.95
587.879	82.26
588.077	94.55
588.276	-11.95
588.475	29.01
588.673	16.73
588.872	82.26
589.07	86.36
589.269	33.11
589.467	63.83
589.666	-75.43
589.864	155.99
590.063	61.78
590.261	67.92
590.46	-3.75
590.658	-7.85
590.857	41.3
591.055	117.08
591.253	-32.43
591.452	20.82
591.65	53.59
591.848	-9.9
592.047	20.82
592.245	35.16
592.444	92.5
592.642	4.44
592.84	-28.33
593.038	29.01
593.237	22.87
593.435	-26.28
593.633	139.6
593.832	-59.05
594.03	10.58
594.228	-40.62
594.426	31.06
594.624	35.16
594.823	8.53
595.021	57.68
595.219	41.3
595.417	88.4
595.615	31.06
595.813	65.88
596.012	26.96
596.21	94.55
596.408	86.36
596.606	43.35
596.804	43.35
597.002	-7.85
597.2	53.59
597.398	-3.75
597.596	-22.19
597.794	61.78
597.992	112.98
598.19	-11.95
598.388	-42.67
598.586	6.49
598.784	51.54
598.982	49.49
599.18	164.18
599.378	129.36
599.576	69.97
599.774	0.34
599.972	100.69
600.17	20.82
600.368	14.68
600.565	88.4
600.763	69.97
600.961	125.27
601.159	8.53
601.357	14.68
601.555	57.68
601.752	69.97
601.95	-18.09
602.148	-30.38
602.346	8.53
602.544	51.54
602.741	-126.63
602.939	-67.24
603.137	-32.43
603.334	18.77
603.532	80.21
603.73	-71.34
603.927	86.36
604.125	16.73
604.323	-42.67
604.52	35.16
604.718	18.77
604.916	55.64
605.113	-83.63
605.311	98.64
605.508	86.36
605.706	69.97
605.904	80.21
606.101	-59.05
606.299	47.44
606.496	45.4
606.694	51.54
606.891	82.26
607.089	-75.43
607.286	24.92
607.484	76.12
607.681	35.16
607.879	131.41
608.076	2.39
608.273	0.34
608.471	12.63
608.668	-69.29
608.866	-7.85
609.063	-114.34
609.26	-89.77
609.458	-95.91
609.655	100.69
609.852	-75.43
610.05	-7.85
610.247	33.11
610.444	49.49
610.642	78.16
610.839	-1.71
611.036	29.01
611.233	-61.1
611.431	-54.95
611.628	-20.14
611.825	31.06
612.022	-57
612.22	84.31
612.417	-57
612.614	-22.19
612.811	-57
613.008	86.36
613.205	-46.76
613.402	-3.75
613.6	-38.57
613.797	-38.57
613.994	-130.73
614.191	106.84
614.388	82.26
614.585	31.06
614.782	-7.85
614.979	123.22
615.176	20.82
615.373	20.82
615.57	84.31
615.767	47.44
615.964	98.64
616.161	-75.43
616.358	24.92
616.555	-11.95
616.752	20.82
616.949	90.45
617.146	-11.95
617.343	67.92
617.539	67.92
617.736	-5.8
617.933	-46.76
618.13	84.31
618.327	41.3
618.524	-65.19
618.721	-57
618.917	8.53
619.114	6.49
619.311	61.78
619.508	-102.06
619.704	158.03
619.901	26.96
620.098	84.31
620.295	18.77
620.491	-5.8
620.688	63.83
620.885	16.73
621.081	26.96
621.278	24.92
621.475	84.31
621.671	41.3
621.868	-81.58
622.065	-28.33
622.261	108.88
622.458	14.68
622.655	180.56
622.851	-7.85
623.048	-52.91
623.244	-40.62
623.441	20.82
623.637	149.84
623.834	-87.72
624.03	2.39
624.227	-11.95
624.423	14.68
624.62	41.3
624.816	84.31
625.013	-26.28
625.209	22.87
625.406	-104.11
625.602	-91.82
625.798	49.49
625.995	-40.62
626.191	55.64
626.388	-5.8
626.584	92.5
626.78	57.68
626.977	57.68
627.173	-71.34
627.369	-30.38
627.566	94.55
627.762	-22.19
627.958	37.2
628.154	2.39
628.351	-46.76
628.547	18.77
628.743	-1.71
628.939	78.16
629.136	-32.43
629.332	67.92
629.528	31.06
629.724	18.77
629.92	90.45
630.116	29.01
630.313	-112.3
630.509	-104.11
630.705	102.74
630.901	51.54
631.097	35.16
631.293	-5.8
631.489	29.01
631.685	-44.71
631.881	76.12
632.077	49.49
632.273	41.3
632.469	-20.14
632.665	35.16
632.861	-16.04
633.057	59.73
633.253	63.83
633.449	-18.09
633.645	-71.34
633.841	112.98
634.037	53.59
634.233	-48.81
634.429	45.4
634.625	29.01
634.821	31.06
635.017	100.69
635.212	-7.85
635.408	-1.71
635.604	8.53
635.8	47.44
635.996	98.64
636.191	129.36
636.387	96.6
636.583	-3.75
636.779	-57
636.975	49.49
637.17	67.92
637.366	106.84
637.562	-26.28
637.757	-7.85
637.953	2.39
638.149	-5.8
638.345	-63.15
638.54	-26.28
638.736	67.92
638.931	-13.99
639.127	43.35
639.323	121.17
639.518	106.84
639.714	-59.05
639.909	-28.33
640.105	119.12
640.301	6.49
640.496	67.92
640.692	84.31
640.887	-1.71
641.083	2.39
641.278	121.17
641.474	51.54
641.669	20.82
641.865	14.68
642.06	49.49
642.256	-167.59
642.451	-24.23
642.646	72.02
642.842	10.58
643.037	-44.71
643.233	57.68
643.428	137.56
643.623	-95.91
643.819	-22.19
644.014	24.92
644.209	63.83
644.405	-36.52
644.6	-61.1
644.795	8.53
644.99	-48.81
645.186	49.49
645.381	35.16
645.576	29.01
645.771	-7.85
645.967	8.53
646.162	69.97
646.357	72.02
646.552	49.49
646.747	20.82
646.943	31.06
647.138	6.49
647.333	18.77
647.528	-257.7
647.723	8.53
647.918	2.39
648.113	55.64
648.308	29.01
648.504	8.53
648.699	-18.09
648.894	-44.71
649.089	-18.09
649.284	-7.85
649.479	37.2
649.674	-91.82
649.869	61.78
650.064	-34.47
650.259	31.06
650.454	-81.58
650.649	26.96
650.844	-75.43
651.038	26.96
651.233	18.77
651.428	12.63
651.623	106.84
651.818	-34.47
652.013	-3.75
652.208	2.39
652.403	-26.28
652.597	55.64
652.792	-26.28
652.987	270.67
653.182	39.25
653.377	24.92
653.571	6.49
653.766	-9.9
653.961	-77.48
654.156	117.08
654.35	24.92
654.545	-24.23
654.74	69.97
654.935	49.49
655.129	106.84
655.324	57.68
655.519	0.34
655.713	41.3
655.908	10.58
656.102	102.74
656.297	-5.8
656.492	98.64
656.686	10.58
656.881	10.58
657.075	-100.01
657.27	39.25
657.464	-9.9
657.659	119.12
657.854	-118.44
658.048	88.4
658.243	-26.28
658.437	24.92
658.631	-71.34
658.826	153.94
659.02	-63.15
659.215	-13.99
659.409	39.25
659.604	0.34
659.798	-50.86
659.992	-65.19
660.187	-9.9
660.381	112.98
660.576	-114.34
660.77	123.22
660.964	43.35
661.159	90.45
661.353	121.17
661.547	57.68
661.742	88.4
661.936	67.92
662.13	14.68
662.324	74.07
662.519	-7.85
662.713	51.54
662.907	-52.91
663.101	31.06
663.295	63.83
663.49	-81.58
663.684	14.68
663.878	-38.57
664.072	47.44
664.266	100.69
664.46	63.83
664.654	39.25
664.849	4.44
665.043	-52.91
665.237	45.4
665.431	-7.85
665.625	20.82
665.819	102.74
666.013	49.49
666.207	8.53
666.401	33.11
666.595	-3.75
666.789	12.63
666.983	35.16
667.177	-11.95
667.371	37.2
667.565	137.56
667.759	16.73
667.953	-63.15
668.147	16.73
668.34	100.69
668.534	33.11
668.728	-81.58
668.922	-83.63
669.116	63.83
669.31	26.96
669.504	-54.95
669.697	6.49
669.891	-20.14
670.085	82.26
670.279	80.21
670.473	-18.09
670.666	76.12
670.86	4.44
671.054	74.07
671.248	108.88
671.441	-3.75
671.635	182.61
671.829	39.25
672.022	-36.52
672.216	-28.33
672.41	72.02
672.603	-36.52
672.797	53.59
672.99	123.22
673.184	92.5
673.378	72.02
673.571	-5.8
673.765	76.12
673.958	2.39
674.152	24.92
674.345	86.36
674.539	112.98
674.733	-16.04
674.926	139.6
675.12	65.88
675.313	14.68
675.506	12.63
675.7	110.93
675.893	78.16
676.087	88.4
676.28	84.31
676.474	92.5
676.667	76.12
676.86	-7.85
677.054	37.2
677.247	-42.67
677.441	10.58
677.634	16.73
677.827	22.87
678.02	92.5
678.214	108.88
678.407	24.92
678.6	4.44
678.794	74.07
678.987	24.92
679.18	22.87
679.373	-11.95
679.567	53.59
679.76	10.58
679.953	-34.47
680.146	-3.75
680.339	94.55
680.533	149.84
680.726	37.2
680.919	29.01
681.112	31.06
681.305	-22.19
681.498	-24.23
681.691	-34.47
681.884	84.31
682.077	-16.04
682.271	-102.06
682.464	2.39
682.657	-24.23
682.85	29.01
683.043	55.64
683.236	-1.71
683.429	-44.71
683.622	-112.3
683.815	-7.85
684.008	2.39
684.201	-67.24
684.393	43.35
684.586	80.21
684.779	18.77
684.972	67.92
685.165	-104.11
685.358	-42.67
685.551	-30.38
685.744	84.31
685.937	-7.85
686.129	78.16
686.322	84.31
686.515	37.2
686.708	24.92
686.901	-34.47
687.093	-22.19
687.286	102.74
687.479	37.2
687.672	-100.01
687.864	-93.87
688.057	12.63
688.25	-42.67
688.442	65.88
688.635	-20.14
688.828	-52.91
689.02	-16.04
689.213	26.96
689.406	57.68
689.598	-65.19
689.791	-9.9
689.984	76.12
690.176	39.25
690.369	-57
690.561	63.83
690.754	-20.14
690.946	123.22
691.139	22.87
691.331	125.27
691.524	16.73
691.716	131.41
691.909	-65.19
692.101	-114.34
692.294	-28.33
692.486	-48.81
692.679	61.78
692.871	-81.58
693.063	16.73
693.256	96.6
693.448	8.53
693.641	37.2
693.833	90.45
694.025	26.96
694.218	35.16
694.41	31.06
694.602	35.16
694.795	61.78
694.987	-95.91
695.179	164.18
695.372	-7.85
695.564	-71.34
695.756	-85.67
695.948	2.39
696.14	37.2
696.333	4.44
696.525	-73.39
696.717	76.12
696.909	-48.81
697.101	98.64
697.294	-5.8
697.486	45.4
697.678	10.58
697.87	18.77
698.062	-85.67
698.254	-97.96
698.446	-24.23
698.638	26.96
698.83	61.78
699.022	24.92
699.215	-71.34
699.407	147.8
699.599	-28.33
699.791	35.16
699.983	115.03
700.175	121.17
700.367	151.89
700.558	102.74
700.75	82.26
700.942	151.89
701.134	-32.43
701.326	92.5
701.518	-1.71
701.71	92.5
701.902	12.63
702.094	-3.75
702.286	-75.43
702.477	123.22
702.669	106.84
702.861	-16.04
703.053	115.03
703.245	-5.8
703.436	117.08
703.628	65.88
703.82	98.64
704.012	31.06
704.203	-100.01
704.395	-32.43
704.587	-3.75
704.779	69.97
704.97	-7.85
705.162	-65.19
705.354	59.73
705.545	-11.95
705.737	-20.14
705.929	20.82
706.12	-48.81
706.312	-48.81
706.503	-97.96
706.695	22.87
706.887	86.36
707.078	-57
707.27	-34.47
707.461	-48.81
707.653	10.58
707.844	67.92
708.036	-5.8
708.227	67.92
708.419	-106.15
708.61	37.2
708.802	29.01
708.993	65.88
709.185	12.63
709.376	67.92
709.567	33.11
709.759	53.59
709.95	104.79
710.141	10.58
710.333	43.35
710.524	10.58
710.716	-153.26
710.907	18.77
711.098	55.64
711.289	100.69
711.481	0.34
711.672	-40.62
711.863	78.16
712.055	65.88
712.246	-34.47
712.437	37.2
712.628	-20.14
712.82	-65.19
713.011	18.77
713.202	86.36
713.393	-69.29
713.584	10.58
713.775	121.17
713.967	57.68
714.158	41.3
714.349	-38.57
714.54	-44.71
714.731	51.54
714.922	115.03
715.113	143.7
715.304	41.3
715.495	98.64
715.686	-69.29
715.877	-16.04
716.068	84.31
716.259	37.2
716.45	51.54
716.641	61.78
716.832	-9.9
717.023	168.27
717.214	8.53
717.405	18.77
717.596	141.65
717.787	72.02
717.978	82.26
718.169	-9.9
718.36	0.34
718.55	37.2
718.741	-91.82
718.932	55.64
719.123	108.88
719.314	49.49
719.505	22.87
719.695	43.35
719.886	67.92
720.077	-42.67
720.268	24.92
720.458	53.59
720.649	49.49
720.84	61.78
721.031	-3.75
721.221	49.49
721.412	72.02
721.603	-3.75
721.793	43.35
721.984	53.59
722.175	80.21
722.365	43.35
722.556	88.4
722.746	94.55
722.937	-9.9
723.128	-28.33
723.318	112.98
723.509	96.6
723.699	65.88
723.89	57.68
724.08	-97.96
724.271	119.12
724.461	-5.8
724.652	47.44
724.842	55.64
725.033	98.64
725.223	61.78
725.414	37.2
725.604	96.6
725.794	96.6
725.985	-61.1
726.175	125.27
726.366	8.53
726.556	61.78
726.746	102.74
726.937	98.64
727.127	-9.9
727.317	84.31
727.508	-40.62
727.698	-79.53
727.888	-140.97
728.079	78.16
728.269	-52.91
728.459	-13.99
728.649	-24.23
728.84	-42.67
729.03	41.3
729.22	-11.95
729.41	90.45
729.6	110.93
729.791	-13.99
729.981	-65.19
730.171	10.58
730.361	22.87
730.551	-50.86
730.741	12.63
730.931	121.17
731.121	168.27
731.311	108.88
731.502	119.12
731.692	-32.43
731.882	49.49
732.072	-48.81
732.262	22.87
732.452	-38.57
732.642	78.16
732.832	20.82
733.022	24.92
733.212	59.73
733.402	16.73
733.591	-9.9
733.781	-13.99
733.971	88.4
734.161	84.31
734.351	16.73
734.541	127.32
734.731	4.44
734.921	-9.9
735.111	-7.85
735.3	123.22
735.49	100.69
735.68	82.26
735.87	-42.67
736.06	-5.8
736.249	41.3
736.439	35.16
736.629	-30.38
736.819	43.35
737.008	45.4
737.198	147.8
737.388	-13.99
737.577	137.56
737.767	26.96
737.957	-26.28
738.146	-102.06
738.336	82.26
738.526	14.68
738.715	63.83
738.905	-59.05
739.094	67.92
739.284	63.83
739.474	-67.24
739.663	20.82
739.853	16.73
740.042	47.44
740.232	80.21
740.421	-5.8
740.611	78.16
740.8	22.87
740.99	59.73
741.179	-54.95
741.369	-18.09
741.558	86.36
741.748	-38.57
741.937	20.82
742.126	0.34
742.316	-18.09
742.505	72.02
742.695	94.55
742.884	-7.85
743.073	106.84
743.263	-28.33
743.452	24.92
743.641	160.08
743.831	-87.72
744.02	24.92
744.209	14.68
744.398	43.35
744.588	123.22
744.777	-77.48
744.966	-20.14
745.155	92.5
745.345	8.53
745.534	172.37
745.723	162.13
745.912	37.2
746.101	29.01
746.29	-5.8
746.48	67.92
746.669	69.97
746.858	47.44
747.047	-77.48
747.236	-143.02
747.425	-20.14
747.614	26.96
747.803	139.6
747.992	14.68
748.181	135.51
748.37	53.59
748.559	80.21
748.748	37.2
748.937	-20.14
749.126	8.53
749.315	24.92
749.504	63.83
749.693	29.01
749.882	55.64
750.071	-75.43
750.26	-16.04
750.449	-40.62
750.638	-40.62
750.826	106.84
751.015	29.01
751.204	-28.33
751.393	69.97
751.582	55.64
751.771	-44.71
751.959	10.58
752.148	-34.47
752.337	57.68
752.526	61.78
752.714	-7.85
752.903	10.58
753.092	84.31
753.281	63.83
753.469	90.45
753.658	10.58
753.847	14.68
754.035	-30.38
754.224	65.88
754.413	53.59
754.601	-32.43
754.79	39.25
754.979	-30.38
755.167	37.2
755.356	65.88
755.544	-32.43
755.733	117.08
755.921	59.73
756.11	-42.67
756.298	-40.62
756.487	41.3
756.675	72.02
756.864	65.88
757.052	-13.99
757.241	-18.09
757.429	26.96
757.618	10.58
757.806	63.83
757.995	45.4
758.183	31.06
758.371	-81.58
758.56	6.49
758.748	-63.15
758.937	-71.34
759.125	57.68
759.313	29.01
759.502	112.98
759.69	-1.71
759.878	-26.28
760.066	6.49
760.255	22.87
760.443	-3.75
760.631	51.54
760.819	51.54
761.008	-24.23
761.196	188.75
761.384	24.92
761.572	69.97
761.761	-38.57
761.949	-110.25
762.137	12.63
762.325	-40.62
762.513	59.73
762.701	76.12
762.889	45.4
763.077	153.94
763.266	72.02
763.454	63.83
763.642	22.87
763.83	100.69
764.018	43.35
764.206	-108.2
764.394	67.92
764.582	-18.09
764.77	67.92
764.958	14.68
765.146	-61.1
765.334	-59.05
765.522	2.39
765.71	55.64
765.898	-18.09
766.085	123.22
766.273	55.64
766.461	67.92
766.649	35.16
766.837	8.53
767.025	-61.1
767.213	59.73
767.401	10.58
767.588	-24.23
767.776	67.92
767.964	-28.33
768.152	43.35
768.339	72.02
768.527	-83.63
768.715	-1.71
768.903	0.34
769.09	59.73
769.278	63.83
769.466	160.08
769.654	-11.95
769.841	31.06
770.029	22.87
770.217	69.97
770.404	-40.62
770.592	131.41
770.779	96.6
770.967	69.97
771.155	-11.95
771.342	-11.95
771.53	51.54
771.717	-18.09
771.905	100.69
772.092	-36.52
772.28	-67.24
772.467	82.26
772.655	86.36
772.842	88.4
773.03	174.42
773.217	182.61
773.405	26.96
773.592	63.83
773.78	-16.04
773.967	49.49
774.154	-42.67
774.342	22.87
774.529	115.03
774.717	-67.24
774.904	4.44
775.091	14.68
775.279	125.27
775.466	135.51
775.653	-95.91
775.841	110.93
776.028	149.84
776.215	-28.33
776.402	72.02
776.59	121.17
776.777	45.4
776.964	-75.43
777.151	-16.04
777.338	65.88
777.526	115.03
777.713	-110.25
777.9	18.77
778.087	0.34
778.274	24.92
778.461	104.79
778.649	-16.04
778.836	24.92
779.023	33.11
779.21	63.83
779.397	51.54
779.584	69.97
779.771	14.68
779.958	-63.15
780.145	72.02
780.332	98.64
780.519	-50.86
780.706	-9.9
780.893	72.02
781.08	22.87
781.267	-32.43
781.454	-42.67
781.641	69.97
781.828	47.44
782.015	37.2
782.202	104.79
782.388	108.88
782.575	-16.04
782.762	-5.8
782.949	-16.04
783.136	-69.29
783.323	-34.47
783.509	72.02
783.696	-18.09
783.883	-69.29
784.07	-69.29
784.257	59.73
784.443	41.3
784.63	-9.9
784.817	29.01
785.004	8.53
785.19	39.25
785.377	-108.2
785.564	39.25
785.75	51.54
785.937	86.36
786.124	-36.52
786.31	33.11
786.497	33.11
786.683	-20.14
786.87	127.32
787.057	133.46
787.243	96.6
787.43	-1.71
787.616	59.73
787.803	47.44
787.989	0.34
788.176	-42.67
788.362	94.55
788.549	78.16
788.735	92.5
788.922	45.4
789.108	-9.9
789.295	94.55
789.481	78.16
789.668	-7.85
789.854	16.73
790.04	63.83
790.227	8.53
790.413	51.54
790.599	100.69
790.786	-5.8
790.972	65.88
791.158	-16.04
791.345	67.92
791.531	59.73
791.717	24.92
791.904	59.73
792.09	151.89
792.276	127.32
792.462	18.77
792.649	18.77
792.835	53.59
793.021	74.07
793.207	10.58
793.393	43.35
793.58	63.83
793.766	86.36
793.952	29.01
794.138	14.68
794.324	106.84
794.51	-16.04
794.696	51.54
794.882	0.34
795.069	18.77
795.255	55.64
795.441	-67.24
795.627	65.88
795.813	84.31
795.999	45.4
796.185	-77.48
796.371	-44.71
796.557	82.26
796.743	76.12
796.929	37.2
797.115	117.08
797.3	51.54
797.486	170.32
797.672	164.18
797.858	63.83
798.044	-16.04
798.23	-69.29
798.416	119.12
798.602	8.53
798.788	-7.85
798.973	-100.01
799.159	41.3
799.345	-16.04
799.531	-18.09
799.717	6.49
799.902	31.06
800.088	37.2
800.274	106.84
800.46	-42.67
800.645	100.69
800.831	61.78
801.017	-26.28
801.202	59.73
801.388	16.73
801.574	-5.8
801.759	137.56
801.945	-48.81
802.131	123.22
802.316	8.53
802.502	-9.9
802.687	-13.99
802.873	63.83
803.058	24.92
803.244	-42.67
803.43	82.26
803.615	-11.95
803.801	-18.09
803.986	45.4
804.172	-3.75
804.357	53.59
804.543	-5.8
804.728	76.12
804.913	45.4
805.099	12.63
805.284	-7.85
805.47	67.92
805.655	63.83
805.84	33.11
806.026	92.5
806.211	90.45
806.397	100.69
806.582	-1.71
806.767	10.58
806.953	158.03
807.138	72.02
807.323	63.83
807.508	-9.9
807.694	39.25
807.879	65.88
808.064	-48.81
808.249	4.44
808.435	90.45
808.62	20.82
808.805	-20.14
808.99	67.92
809.175	-1.71
809.361	-5.8
809.546	-13.99
809.731	-3.75
809.916	92.5
810.101	16.73
810.286	-40.62
810.471	-24.23
810.656	-7.85
810.841	35.16
811.026	82.26
811.211	-9.9
811.396	-71.34
811.581	104.79
811.766	-110.25
811.951	20.82
812.136	-50.86
812.321	-13.99
812.506	35.16
812.691	-100.01
812.876	-5.8
813.061	37.2
813.246	92.5
813.431	22.87
813.616	-73.39
813.801	47.44
813.986	104.79
814.17	12.63
814.355	49.49
814.54	104.79
814.725	112.98
814.91	-38.57
815.094	33.11
815.279	37.2
815.464	149.84
815.649	49.49
815.833	67.92
816.018	67.92
816.203	-77.48
816.388	-48.81
816.572	88.4
816.757	-32.43
816.942	-38.57
817.126	22.87
817.311	20.82
817.496	98.64
817.68	100.69
817.865	104.79
818.049	96.6
818.234	-46.76
818.419	96.6
818.603	55.64
818.788	-1.71
818.972	127.32
819.157	100.69
819.341	-50.86
819.526	90.45
819.71	110.93
819.895	16.73
820.079	133.46
820.264	-11.95
820.448	98.64
820.633	20.82
820.817	-13.99
821.001	26.96
821.186	67.92
821.37	88.4
821.554	-30.38
821.739	-9.9
821.923	-46.76
822.108	63.83
822.292	-9.9
822.476	22.87
822.66	-9.9
822.845	-16.04
823.029	41.3
823.213	65.88
823.398	-40.62
823.582	72.02
823.766	74.07
823.95	-81.58
824.134	33.11
824.319	55.64
824.503	-54.95
824.687	74.07
824.871	84.31
825.055	65.88
825.239	55.64
825.423	-24.23
825.608	0.34
825.792	-5.8
825.976	-42.67
826.16	74.07
826.344	33.11
826.528	67.92
826.712	39.25
826.896	4.44
827.08	86.36
827.264	94.55
827.448	69.97
827.632	2.39
827.816	35.16
828	61.78
828.184	-5.8
828.368	123.22
828.552	182.61
828.736	-18.09
828.919	2.39
829.103	4.44
829.287	10.58
829.471	4.44
829.655	-67.24
829.839	123.22
830.023	69.97
830.206	123.22
830.39	-9.9
830.574	2.39
830.758	-91.82
830.941	39.25
831.125	59.73
831.309	53.59
831.493	92.5
831.676	-16.04
831.86	0.34
832.044	63.83
832.227	96.6
832.411	-1.71
832.595	72.02
832.778	-30.38
832.962	96.6
833.146	84.31
833.329	-79.53
833.513	51.54
833.696	67.92
833.88	-61.1
834.064	55.64
834.247	98.64
834.431	31.06
834.614	35.16
834.798	0.34
834.981	63.83
835.165	22.87
835.348	8.53
835.532	92.5
835.715	-38.57
835.898	53.59
836.082	96.6
836.265	-11.95
836.449	-28.33
836.632	26.96
836.815	8.53
836.999	80.21
837.182	-24.23
837.365	88.4
837.549	22.87
837.732	-34.47
837.915	63.83
838.099	59.73
838.282	20.82
838.465	57.68
838.648	-30.38
838.832	41.3
839.015	-34.47
839.198	18.77
839.381	6.49
839.565	-71.34
839.748	22.87
839.931	29.01
840.114	20.82
840.297	63.83
840.48	-5.8
840.663	6.49
840.847	49.49
841.03	69.97
841.213	41.3
841.396	24.92
841.579	131.41
841.762	-5.8
841.945	184.66
842.128	-20.14
842.311	55.64
842.494	76.12
842.677	35.16
842.86	-79.53
843.043	98.64
843.226	104.79
843.409	-46.76
843.592	31.06
843.775	49.49
843.958	55.64
844.141	2.39
844.323	14.68
844.506	67.92
844.689	37.2
844.872	12.63
845.055	-143.02
845.238	135.51
845.42	4.44
845.603	-11.95
845.786	108.88
845.969	0.34
846.152	90.45
846.334	-28.33
846.517	78.16
846.7	53.59
846.883	43.35
847.065	33.11
847.248	-63.15
847.431	-26.28
847.613	164.18
847.796	82.26
847.979	-7.85
848.161	106.84
848.344	-24.23
848.526	39.25
848.709	-16.04
848.892	-30.38
849.074	-13.99
849.257	-59.05
849.439	100.69
849.622	-24.23
849.804	31.06
849.987	-30.38
850.169	20.82
850.352	65.88
850.534	-59.05
850.717	2.39
850.899	35.16
851.082	61.78
851.264	-1.71
851.446	45.4
851.629	18.77
851.811	84.31
851.994	-7.85
852.176	8.53
852.358	-3.75
852.541	4.44
852.723	-61.1
852.905	51.54
853.088	65.88
853.27	10.58
853.452	-59.05
853.635	-32.43
853.817	14.68
853.999	57.68
854.181	0.34
854.363	-26.28
854.546	55.64
854.728	84.31
854.91	108.88
855.092	67.92
855.274	51.54
855.457	78.16
855.639	-46.76
855.821	90.45
856.003	76.12
856.185	-16.04
856.367	22.87
856.549	80.21
856.731	160.08
856.913	78.16
857.095	153.94
857.277	-20.14
857.459	53.59
857.641	35.16
857.823	-30.38
858.005	-22.19
858.187	14.68
858.369	26.96
858.551	-75.43
858.733	63.83
858.915	153.94
859.097	41.3
859.279	-40.62
859.461	80.21
859.643	82.26
859.824	-57
860.006	-1.71
860.188	88.4
860.37	14.68
860.552	-54.95
860.734	-38.57
860.915	-65.19
861.097	57.68
861.279	20.82
861.461	43.35
861.642	53.59
861.824	-32.43
862.006	125.27
862.188	-28.33
862.369	76.12
862.551	57.68
862.733	-28.33
862.914	-16.04
863.096	59.73
863.278	18.77
863.459	63.83
863.641	29.01
863.822	-9.9
864.004	92.5
864.185	112.98
864.367	82.26
864.549	-122.54
864.73	69.97
864.912	76.12
865.093	16.73
865.275	35.16
865.456	-36.52
865.638	76.12
865.819	112.98
866.001	0.34
866.182	31.06
866.363	51.54
866.545	-20.14
866.726	-11.95
866.908	35.16
867.089	94.55
867.27	-16.04
867.452	37.2
867.633	53.59
867.814	31.06
867.996	8.53
868.177	-44.71
868.358	20.82
868.54	-36.52
868.721	-57
868.902	88.4
869.083	-71.34
869.265	59.73
869.446	14.68
869.627	-42.67
869.808	39.25
869.989	80.21
870.171	20.82
870.352	41.3
870.533	-11.95
870.714	-13.99
870.895	61.78
871.076	31.06
871.257	45.4
871.438	-16.04
871.619	53.59
871.801	137.56
871.982	8.53
872.163	43.35
872.344	-46.76
872.525	-48.81
872.706	12.63
872.887	53.59
873.068	78.16
873.249	133.46
873.43	117.08
873.61	-48.81
873.791	49.49
873.972	112.98
874.153	100.69
874.334	123.22
874.515	-24.23
874.696	-32.43
874.877	-11.95
875.058	18.77
875.238	125.27
875.419	47.44
875.6	-30.38
875.781	-46.76
875.962	61.78
876.142	35.16
876.323	123.22
876.504	-138.92
876.685	-32.43
876.865	160.08
877.046	92.5
877.227	14.68
877.407	-5.8
877.588	-16.04
877.769	92.5
877.949	-5.8
878.13	-36.52
878.311	-30.38
878.491	86.36
878.672	125.27
878.853	-22.19
879.033	55.64
879.214	-30.38
879.394	117.08
879.575	49.49
879.755	26.96
879.936	-77.48
880.116	-24.23
880.297	-5.8
880.477	-73.39
880.658	-124.58
880.838	-1.71
881.019	-57
881.199	-36.52
881.38	-3.75
881.56	51.54
881.74	35.16
881.921	164.18
882.101	162.13
882.281	63.83
882.462	18.77
882.642	47.44
882.822	-46.76
883.003	39.25
883.183	16.73
883.363	20.82
883.544	74.07
883.724	-65.19
883.904	123.22
884.084	26.96
884.265	53.59
884.445	22.87
884.625	6.49
884.805	94.55
884.985	24.92
885.166	39.25
885.346	55.64
885.526	78.16
885.706	133.46
885.886	41.3
886.066	-5.8
886.246	-65.19
886.426	31.06
886.606	76.12
886.787	-63.15
886.967	22.87
887.147	59.73
887.327	43.35
887.507	-81.58
887.687	59.73
887.867	-38.57
888.047	123.22
888.227	53.59
888.406	29.01
888.586	-102.06
888.766	35.16
888.946	82.26
889.126	115.03
889.306	12.63
889.486	76.12
889.666	-73.39
889.846	51.54
890.025	24.92
890.205	100.69
890.385	26.96
890.565	-30.38
890.745	35.16
890.924	53.59
891.104	-1.71
891.284	115.03
891.464	90.45
891.643	41.3
891.823	-28.33
892.003	72.02
892.183	69.97
892.362	6.49
892.542	37.2
892.722	82.26
892.901	-16.04
893.081	24.92
893.26	-16.04
893.44	-36.52
893.62	100.69
893.799	41.3
893.979	61.78
894.158	-155.3
894.338	39.25
894.517	22.87
894.697	12.63
894.877	86.36
895.056	51.54
895.236	24.92
895.415	16.73
895.594	196.95
895.774	20.82
895.953	26.96
896.133	-73.39
896.312	43.35
896.492	67.92
896.671	-13.99
896.85	-16.04
897.03	72.02
897.209	155.99
897.388	43.35
897.568	-38.57
897.747	106.84
897.926	14.68
898.106	90.45
898.285	125.27
898.464	14.68
898.643	-81.58
898.823	24.92
899.002	-50.86
899.181	65.88
899.36	39.25
899.54	-3.75
899.719	-69.29
899.898	82.26
900.077	-20.14
900.256	-9.9
900.435	49.49
900.614	-11.95
900.794	47.44
900.973	80.21
901.152	104.79
901.331	158.03
901.51	-48.81
901.689	39.25
901.868	53.59
902.047	166.23
902.226	18.77
902.405	-73.39
902.584	24.92
902.763	72.02
902.942	59.73
903.121	29.01
903.3	51.54
903.479	-5.8
903.658	96.6
903.837	-3.75
904.015	96.6
904.194	14.68
904.373	96.6
904.552	-48.81
904.731	47.44
904.91	55.64
905.089	24.92
905.267	82.26
905.446	12.63
905.625	-13.99
905.804	12.63
905.982	-13.99
906.161	67.92
906.34	-59.05
906.519	-7.85
906.697	119.12
906.876	39.25
907.055	80.21
907.233	121.17
907.412	63.83
907.591	-18.09
907.769	35.16
907.948	57.68
908.127	100.69
908.305	-38.57
908.484	-9.9
908.662	-5.8
908.841	55.64
909.019	-24.23
909.198	-3.75
909.377	-11.95
909.555	18.77
909.734	108.88
909.912	92.5
910.09	80.21
910.269	26.96
910.447	29.01
910.626	121.17
910.804	4.44
910.983	82.26
911.161	-57
911.339	-13.99
911.518	110.93
911.696	-118.44
911.875	-3.75
912.053	104.79
912.231	-20.14
912.41	45.4
912.588	59.73
912.766	-48.81
912.944	29.01
913.123	12.63
913.301	63.83
913.479	6.49
913.657	-71.34
913.836	139.6
914.014	133.46
914.192	-20.14
914.37	84.31
914.548	37.2
914.727	133.46
914.905	59.73
915.083	-75.43
915.261	117.08
915.439	29.01
915.617	98.64
915.795	-118.44
915.973	6.49
916.151	49.49
916.329	20.82
916.508	-28.33
916.686	-24.23
916.864	-116.39
917.042	-3.75
917.22	110.93
917.398	86.36
917.575	-32.43
917.753	-34.47
917.931	49.49
918.109	-20.14
918.287	84.31
918.465	26.96
918.643	196.95
918.821	-48.81
918.999	22.87
919.177	47.44
919.354	110.93
919.532	88.4
919.71	-85.67
919.888	78.16
920.066	16.73
920.243	20.82
920.421	49.49
920.599	153.94
920.777	41.3
920.954	57.68
921.132	78.16
921.31	29.01
921.488	20.82
921.665	-9.9
921.843	-20.14
922.021	104.79
922.198	-34.47
922.376	65.88
922.553	112.98
922.731	43.35
922.909	39.25
923.086	39.25
923.264	53.59
923.441	104.79
923.619	-48.81
923.796	24.92
923.974	43.35
924.152	-32.43
924.329	26.96
924.507	41.3
924.684	125.27
924.861	119.12
925.039	55.64
925.216	72.02
925.394	63.83
925.571	16.73
925.749	43.35
925.926	90.45
926.103	-73.39
926.281	43.35
926.458	-20.14
926.635	88.4
926.813	22.87
926.99	10.58
927.167	-5.8
927.345	-38.57
927.522	20.82
927.699	137.56
927.876	16.73
928.054	-46.76
928.231	-83.63
928.408	43.35
928.585	-26.28
928.763	-36.52
928.94	139.6
929.117	53.59
929.294	26.96
929.471	96.6
929.648	-46.76
929.825	33.11
930.003	-73.39
930.18	59.73
930.357	-11.95
930.534	-46.76
930.711	100.69
930.888	14.68
931.065	96.6
931.242	-30.38
931.419	53.59
931.596	-28.33
931.773	-24.23
931.95	98.64
932.127	6.49
932.304	-9.9
932.481	117.08
932.658	-3.75
932.835	37.2
933.011	59.73
933.188	45.4
933.365	24.92
933.542	53.59
933.719	133.46
933.896	57.68
934.073	-77.48
934.249	55.64
934.426	110.93
934.603	-30.38
934.78	78.16
934.957	35.16
935.133	168.27
935.31	203.09
935.487	43.35
935.664	78.16
935.84	67.92
936.017	24.92
936.194	96.6
936.37	-81.58
936.547	0.34
936.724	35.16
936.9	0.34
937.077	-95.91
937.253	65.88
937.43	-18.09
937.607	59.73
937.783	-38.57
937.96	24.92
938.136	188.75
938.313	119.12
938.489	-1.71
938.666	22.87
938.842	39.25
939.019	57.68
939.195	-34.47
939.372	127.32
939.548	90.45
939.725	82.26
939.901	31.06
940.077	37.2
940.254	43.35
940.43	-32.43
940.607	-32.43
940.783	29.01
940.959	78.16
941.136	51.54
941.312	-36.52
941.488	-13.99
941.665	-71.34
941.841	102.74
942.017	84.31
942.193	143.7
942.37	-11.95
942.546	20.82
942.722	82.26
942.898	45.4
943.074	49.49
943.251	53.59
943.427	-38.57
943.603	88.4
943.779	35.16
943.955	92.5
944.131	35.16
944.308	47.44
944.484	2.39
944.66	98.64
944.836	-26.28
945.012	-28.33
945.188	72.02
945.364	115.03
945.54	4.44
945.716	-9.9
945.892	53.59
946.068	26.96
946.244	-48.81
946.42	72.02
946.596	16.73
946.772	53.59
946.948	20.82
947.124	-67.24
947.3	51.54
947.475	139.6
947.651	-11.95
947.827	-18.09
948.003	-26.28
948.179	88.4
948.355	-63.15
948.531	-44.71
948.706	49.49
948.882	92.5
949.058	-54.95
949.234	45.4
949.409	-16.04
949.585	-32.43
949.761	-18.09
949.937	117.08
950.112	49.49
950.288	61.78
950.464	61.78
950.639	121.17
950.815	108.88
950.991	37.2
951.166	26.96
951.342	37.2
951.518	82.26
951.693	47.44
951.869	26.96
952.044	41.3
952.22	16.73
952.395	29.01
952.571	67.92
952.747	74.07
952.922	-9.9
953.098	94.55
953.273	29.01
953.448	-18.09
953.624	-48.81
953.799	41.3
953.975	-34.47
954.15	6.49
954.326	-3.75
954.501	-26.28
954.676	-5.8
954.852	12.63
955.027	6.49
955.203	-52.91
955.378	86.36
955.553	37.2
955.729	67.92
955.904	-54.95
956.079	-11.95
956.254	125.27
956.43	-36.52
956.605	215.38
956.78	-118.44
956.955	139.6
957.131	86.36
957.306	63.83
957.481	-5.8
957.656	67.92
957.831	80.21
958.007	-28.33
958.182	63.83
958.357	88.4
958.532	14.68
958.707	55.64
958.882	43.35
959.057	37.2
959.232	35.16
959.407	14.68
959.582	135.51
959.757	98.64
959.932	59.73
960.107	117.08
960.282	33.11
960.457	123.22
960.632	-24.23
960.807	6.49
960.982	18.77
961.157	-18.09
961.332	-5.8
961.507	-97.96
961.682	-11.95
961.857	-7.85
962.032	14.68
962.206	-149.16
962.381	-13.99
962.556	-1.71
962.731	94.55
962.906	6.49
963.081	76.12
963.255	47.44
963.43	-24.23
963.605	47.44
963.78	-9.9
963.954	-16.04
964.129	117.08
964.304	35.16
964.479	12.63
964.653	-79.53
964.828	-11.95
965.003	35.16
965.177	88.4
965.352	-89.77
965.526	12.63
965.701	121.17
965.876	86.36
966.05	-73.39
966.225	22.87
966.399	2.39
966.574	61.78
966.748	8.53
966.923	20.82
967.098	104.79
967.272	-16.04
967.446	-7.85
967.621	8.53
967.795	16.73
967.97	-89.77
968.144	74.07
968.319	26.96
968.493	39.25
968.668	31.06
968.842	-1.71
969.016	67.92
969.191	115.03
969.365	4.44
969.539	16.73
969.714	-11.95
969.888	8.53
970.062	22.87
970.237	12.63
970.411	4.44
970.585	112.98
970.759	61.78
970.934	98.64
971.108	22.87
971.282	69.97
971.456	-24.23
971.63	67.92
971.805	-16.04
971.979	-18.09
972.153	47.44
972.327	53.59
972.501	2.39
972.675	47.44
972.849	43.35
973.024	57.68
973.198	-36.52
973.372	-18.09
973.546	59.73
973.72	33.11
973.894	22.87
974.068	20.82
974.242	37.2
974.416	-79.53
974.59	-28.33
974.764	-122.54
974.938	-87.72
975.112	-59.05
975.286	41.3
975.46	84.31
975.633	-44.71
975.807	16.73
975.981	6.49
976.155	74.07
976.329	47.44
976.503	10.58
976.677	55.64
976.85	16.73
977.024	33.11
977.198	-30.38
977.372	-20.14
977.546	125.27
977.719	-73.39
977.893	86.36
978.067	18.77
978.241	-32.43
978.414	-52.91
978.588	-54.95
978.762	61.78
978.935	108.88
979.109	82.26
979.283	112.98
979.456	61.78
979.63	-52.91
979.804	88.4
979.977	-3.75
980.151	-30.38
980.324	63.83
980.498	12.63
980.671	33.11
980.845	-54.95
981.018	53.59
981.192	-89.77
981.365	63.83
981.539	67.92
981.712	6.49
981.886	-81.58
982.059	16.73
982.233	6.49
982.406	98.64
982.58	65.88
982.753	63.83
982.926	-3.75
983.1	129.36
983.273	69.97
983.446	24.92
983.62	29.01
983.793	51.54
983.966	33.11
984.14	-79.53
984.313	41.3
984.486	49.49
984.66	45.4
984.833	65.88
985.006	8.53
985.179	106.84
985.352	-1.71
985.526	-36.52
985.699	-71.34
985.872	78.16
986.045	84.31
986.218	18.77
986.391	-18.09
986.565	67.92
986.738	-13.99
986.911	-54.95
987.084	4.44
987.257	39.25
987.43	-11.95
987.603	39.25
987.776	-50.86
987.949	51.54
988.122	16.73
988.295	-67.24
988.468	-52.91
988.641	74.07
988.814	-16.04
988.987	-9.9
989.16	100.69
989.333	-40.62
989.506	-5.8
989.679	-48.81
989.852	131.41
990.025	41.3
990.197	37.2
990.37	33.11
990.543	14.68
990.716	8.53
990.889	94.55
991.062	-61.1
991.234	-11.95
991.407	-120.49
991.58	92.5
991.753	-9.9
991.925	78.16
992.098	39.25
992.271	41.3
992.444	-91.82
992.616	-50.86
992.789	135.51
992.962	22.87
993.134	20.82
993.307	-50.86
993.479	18.77
993.652	-24.23
993.825	92.5
993.997	76.12
994.17	-50.86
994.342	26.96
994.515	-106.15
994.688	47.44
994.86	-11.95
995.033	6.49
995.205	100.69
995.378	74.07
995.55	12.63
995.723	41.3
995.895	141.65
996.067	6.49
996.24	39.25
996.412	61.78
996.585	-7.85
996.757	82.26
996.929	-20.14
997.102	-13.99
997.274	-26.28
997.447	96.6
997.619	80.21
997.791	106.84
997.964	-18.09
998.136	67.92
998.308	143.7
998.48	-44.71
998.653	88.4
998.825	57.68
998.997	39.25
999.169	-36.52
999.342	117.08
999.514	-95.91
999.686	-24.23
999.858	-3.75
1000.03	108.88
1000.202	-42.67
1000.374	-24.23
1000.547	31.06
1000.719	-77.48
1000.891	106.84
1001.063	-9.9
1001.235	49.49
1001.407	-69.29
1001.579	-5.8
1001.751	72.02
1001.923	-73.39
1002.095	55.64
1002.267	24.92
1002.439	24.92
1002.611	-36.52
1002.783	98.64
1002.955	22.87
1003.127	92.5
1003.299	35.16
1003.471	-67.24
1003.643	88.4
1003.815	-71.34
1003.986	8.53
1004.158	47.44
1004.33	4.44
1004.502	51.54
1004.674	37.2
1004.846	78.16
1005.017	-73.39
1005.189	29.01
1005.361	6.49
1005.533	39.25
1005.704	106.84
1005.876	47.44
1006.048	110.93
1006.22	51.54
1006.391	-3.75
1006.563	4.44
1006.735	39.25
1006.906	-26.28
1007.078	-163.5
1007.25	6.49
1007.421	86.36
1007.593	-36.52
1007.764	-3.75
1007.936	129.36
1008.108	-95.91
1008.279	43.35
1008.451	18.77
1008.622	43.35
1008.794	14.68
1008.965	65.88
1009.137	59.73
1009.308	24.92
1009.48	-36.52
1009.651	117.08
1009.823	6.49
1009.994	14.68
1010.165	47.44
1010.337	-46.76
1010.508	39.25
1010.68	108.88
1010.851	-83.63
1011.022	-13.99
1011.194	24.92
1011.365	-40.62
1011.536	-44.71
1011.708	20.82
1011.879	127.32
1012.05	115.03
1012.222	117.08
1012.393	51.54
1012.564	84.31
1012.735	88.4
1012.906	20.82
1013.078	57.68
1013.249	-36.52
1013.42	-69.29
1013.591	12.63
1013.762	100.69
1013.934	115.03
1014.105	-81.58
1014.276	69.97
1014.447	-40.62
1014.618	31.06
1014.789	-3.75
1014.96	67.92
1015.131	-13.99
1015.302	45.4
1015.473	61.78
1015.644	78.16
1015.815	-20.14
1015.986	-20.14
1016.157	16.73
1016.328	-61.1
1016.499	24.92
1016.67	67.92
1016.841	67.92
1017.012	12.63
1017.183	-44.71
1017.354	14.68
1017.525	35.16
1017.696	14.68
1017.867	-50.86
1018.037	96.6
1018.208	141.65
1018.379	57.68
1018.55	65.88
1018.721	10.58
1018.891	53.59
1019.062	16.73
1019.233	110.93
1019.404	137.56
1019.574	86.36
1019.745	-16.04
1019.916	-69.29
1020.087	72.02
1020.257	-54.95
1020.428	-118.44
1020.599	49.49
1020.769	-7.85
1020.94	39.25
1021.11	26.96
1021.281	-50.86
1021.452	137.56
1021.622	-83.63
1021.793	90.45
1021.963	22.87
1022.134	-30.38
1022.305	35.16
1022.475	112.98
1022.646	174.42
1022.816	2.39
1022.987	-34.47
1023.157	20.82
1023.327	49.49
1023.498	-42.67
1023.668	-48.81
1023.839	2.39
1024.009	-13.99
1024.18	37.2
1024.35	6.49
1024.52	98.64
1024.691	41.3
1024.861	57.68
1025.031	18.77
1025.202	-46.76
1025.372	67.92
1025.542	10.58
1025.713	94.55
1025.883	-30.38
1026.053	90.45
1026.223	86.36
1026.394	51.54
1026.564	-22.19
1026.734	-28.33
1026.904	33.11
1027.074	-20.14
1027.245	-24.23
1027.415	69.97
1027.585	59.73
1027.755	4.44
1027.925	-54.95
1028.095	33.11
1028.265	88.4
1028.435	-9.9
1028.606	29.01
1028.776	-65.19
1028.946	84.31
1029.116	35.16
1029.286	12.63
1029.456	96.6
1029.626	-20.14
1029.796	0.34
1029.966	0.34
1030.136	14.68
1030.306	-85.67
1030.475	149.84
1030.645	-54.95
1030.815	-32.43
1030.985	-24.23
1031.155	104.79
1031.325	39.25
1031.495	6.49
1031.665	55.64
1031.835	135.51
1032.004	-26.28
1032.174	-67.24
1032.344	104.79
1032.514	4.44
1032.684	59.73
1032.853	18.77
1033.023	6.49
1033.193	106.84
1033.362	-73.39
1033.532	198.99
1033.702	-3.75
1033.872	16.73
1034.041	53.59
1034.211	106.84
1034.381	-18.09
1034.55	-38.57
1034.72	31.06
1034.889	65.88
1035.059	76.12
1035.229	-5.8
1035.398	6.49
1035.568	133.46
1035.737	-30.38
1035.907	-13.99
1036.076	22.87
1036.246	-34.47
1036.415	29.01
1036.585	16.73
1036.754	16.73
1036.924	-7.85
1037.093	-9.9
1037.263	-46.76
1037.432	127.32
1037.601	-7.85
1037.771	-42.67
1037.94	92.5
1038.11	-73.39
1038.279	-81.58
1038.448	-46.76
1038.618	35.16
1038.787	61.78
1038.956	-104.11
1039.126	-77.48
1039.295	76.12
1039.464	88.4
1039.633	-7.85
1039.803	22.87
1039.972	174.42
1040.141	-36.52
1040.31	39.25
1040.479	16.73
1040.649	104.79
1040.818	-75.43
1040.987	-38.57
1041.156	72.02
1041.325	-11.95
1041.494	-1.71
1041.663	80.21
1041.833	-16.04
1042.002	37.2
1042.171	-3.75
1042.34	-18.09
1042.509	26.96
1042.678	2.39
