Data from LSP67_S16_Subt4_17-48-59-309.txt Node
Date: Wed Aug 09 17:48:59 EDT 2023
User: Emmanuel
Spectrometer: USB4A00615
Scans to average: 1
Trigger mode: 1
Integration Time (sec): 5.000000E-3
Electric dark correction enabled: true
Boxcar width: 0
XAxis mode: Wavelengths
Number of Pixels in Spectrum: 3648
>>>>>Begin Spectral Data<<<<<
346.606	-104.79
346.818	-104.79
347.029	-104.79
347.241	71.34
347.452	71.34
347.664	-8.53
347.876	-51.54
348.087	40.62
348.299	-80.21
348.51	-57.68
348.722	-0.34
348.933	36.52
349.145	20.14
349.356	54.95
349.568	71.34
349.779	-35.16
349.991	9.9
350.202	-8.53
350.414	-125.27
350.625	-92.5
350.836	22.19
351.048	-76.12
351.259	-125.27
351.471	32.43
351.682	-26.96
351.893	-14.68
352.105	61.1
352.316	-20.82
352.527	-119.12
352.739	-108.88
352.95	-12.63
353.161	-41.3
353.372	-12.63
353.584	1.71
353.795	-8.53
354.006	-24.92
354.217	-59.73
354.429	-26.96
354.64	-121.17
354.851	1.71
355.062	79.53
355.274	65.19
355.485	61.1
355.696	22.19
355.907	67.24
356.118	-12.63
356.329	-59.73
356.54	134.82
356.752	-59.73
356.963	13.99
357.174	-102.74
357.385	38.57
357.596	16.04
357.807	-72.02
358.018	-31.06
358.229	42.67
358.44	-80.21
358.651	-53.59
358.862	-63.83
359.073	18.09
359.284	34.47
359.495	-74.07
359.706	-20.82
359.917	-69.97
360.128	-2.39
360.339	-8.53
360.55	-47.44
360.761	40.62
360.972	-10.58
361.182	-12.63
361.393	-76.12
361.604	-33.11
361.815	-57.68
362.026	83.63
362.237	13.99
362.447	-14.68
362.658	-0.34
362.869	-80.21
363.08	-67.92
363.291	77.48
363.501	114.34
363.712	-80.21
363.923	-0.34
364.134	-45.4
364.344	-143.7
364.555	-29.01
364.766	-35.16
364.976	-18.77
365.187	-45.4
365.398	116.39
365.608	59.05
365.819	26.28
366.03	-49.49
366.24	28.33
366.451	-86.36
366.662	-6.49
366.872	5.8
367.083	13.99
367.293	3.75
367.504	13.99
367.714	-100.69
367.925	65.19
368.135	-55.64
368.346	28.33
368.557	-131.41
368.767	-20.82
368.977	1.71
369.188	-20.82
369.398	93.87
369.609	9.9
369.819	32.43
370.03	-35.16
370.24	-31.06
370.451	-26.96
370.661	11.95
370.871	-102.74
371.082	5.8
371.292	-53.59
371.502	-31.06
371.713	7.85
371.923	-45.4
372.133	-39.25
372.344	1.71
372.554	-80.21
372.764	1.71
372.975	36.52
373.185	-69.97
373.395	-12.63
373.605	-72.02
373.816	81.58
374.026	-33.11
374.236	-88.4
374.446	-61.78
374.656	-39.25
374.867	-45.4
375.077	-74.07
375.287	46.76
375.497	-67.92
375.707	-4.44
375.917	-26.96
376.127	-31.06
376.338	73.39
376.548	-4.44
376.758	91.82
376.968	-88.4
377.178	-16.73
377.388	-47.44
377.598	79.53
377.808	-29.01
378.018	9.9
378.228	85.67
378.438	-76.12
378.648	-37.2
378.858	-80.21
379.068	-78.16
379.278	-29.01
379.488	-39.25
379.698	59.05
379.908	46.76
380.118	-22.87
380.327	-49.49
380.537	-16.73
380.747	-57.68
380.957	65.19
381.167	-12.63
381.377	-51.54
381.587	-108.88
381.796	-43.35
382.006	-2.39
382.216	-10.58
382.426	-74.07
382.636	-29.01
382.845	13.99
383.055	3.75
383.265	16.04
383.475	-80.21
383.684	44.71
383.894	-53.59
384.104	7.85
384.313	-16.73
384.523	9.9
384.733	7.85
384.942	63.15
385.152	46.76
385.362	-121.17
385.571	52.91
385.781	-153.94
385.991	44.71
386.2	-20.82
386.41	32.43
386.619	-69.97
386.829	102.06
387.038	-137.56
387.248	95.91
387.457	38.57
387.667	16.04
387.876	-108.88
388.086	-47.44
388.295	-26.96
388.505	16.04
388.714	7.85
388.924	-37.2
389.133	20.14
389.343	67.24
389.552	-33.11
389.762	-8.53
389.971	-69.97
390.18	42.67
390.39	-37.2
390.599	-14.68
390.808	-80.21
391.018	116.39
391.227	63.15
391.436	-69.97
391.646	-74.07
391.855	75.43
392.064	9.9
392.274	63.15
392.483	-92.5
392.692	-108.88
392.901	26.28
393.111	-10.58
393.32	-82.26
393.529	24.23
393.738	34.47
393.947	-14.68
394.157	-45.4
394.366	-39.25
394.575	-20.82
394.784	-12.63
394.993	-37.2
395.202	-35.16
395.411	26.28
395.62	65.19
395.83	-31.06
396.039	-12.63
396.248	71.34
396.457	114.34
396.666	63.15
396.875	175.78
397.084	-18.77
397.293	-35.16
397.502	63.15
397.711	-8.53
397.92	42.67
398.129	50.86
398.338	-41.3
398.547	9.9
398.756	-29.01
398.965	-6.49
399.174	-76.12
399.382	-84.31
399.591	-14.68
399.8	-69.97
400.009	-20.82
400.218	75.43
400.427	-47.44
400.636	-12.63
400.844	-129.36
401.053	52.91
401.262	36.52
401.471	3.75
401.68	-72.02
401.888	-16.73
402.097	-16.73
402.306	-166.23
402.515	-0.34
402.723	-78.16
402.932	89.77
403.141	48.81
403.35	57
403.558	79.53
403.767	-112.98
403.976	-67.92
404.184	-123.22
404.393	52.91
404.602	-39.25
404.81	-22.87
405.019	-22.87
405.227	-31.06
405.436	1.71
405.645	-2.39
405.853	-92.5
406.062	-2.39
406.27	-22.87
406.479	-47.44
406.687	-16.73
406.896	44.71
407.104	40.62
407.313	44.71
407.521	-16.73
407.73	-41.3
407.938	54.95
408.147	-47.44
408.355	-6.49
408.563	126.63
408.772	9.9
408.98	-45.4
409.189	-57.68
409.397	-31.06
409.605	-18.77
409.814	79.53
410.022	16.04
410.23	11.95
410.439	32.43
410.647	-55.64
410.855	-22.87
411.064	-137.56
411.272	-119.12
411.48	69.29
411.688	42.67
411.897	73.39
412.105	-158.03
412.313	-53.59
412.521	32.43
412.73	100.01
412.938	61.1
413.146	-2.39
413.354	-14.68
413.562	-6.49
413.77	-31.06
413.979	-119.12
414.187	-162.13
414.395	36.52
414.603	-61.78
414.811	-0.34
415.019	-137.56
415.227	-26.96
415.435	-55.64
415.643	-29.01
415.851	34.47
416.059	-88.4
416.267	-43.35
416.475	13.99
416.683	61.1
416.891	24.23
417.099	44.71
417.307	-4.44
417.515	-117.08
417.723	-39.25
417.931	-45.4
418.139	1.71
418.347	-10.58
418.555	-72.02
418.763	-47.44
418.971	-12.63
419.179	-31.06
419.386	-104.79
419.594	46.76
419.802	-4.44
420.01	26.28
420.218	-100.69
420.426	-125.27
420.633	-33.11
420.841	-72.02
421.049	13.99
421.257	-100.69
421.464	-47.44
421.672	40.62
421.88	-100.69
422.088	28.33
422.295	-41.3
422.503	-6.49
422.711	20.14
422.918	-26.96
423.126	-43.35
423.334	46.76
423.541	-61.78
423.749	-92.5
423.956	-18.77
424.164	28.33
424.372	-31.06
424.579	-51.54
424.787	-2.39
424.994	52.91
425.202	46.76
425.409	9.9
425.617	18.09
425.824	-0.34
426.032	-86.36
426.239	-78.16
426.447	-16.73
426.654	-65.88
426.862	22.19
427.069	97.96
427.277	-41.3
427.484	-72.02
427.692	16.04
427.899	-14.68
428.106	44.71
428.314	-33.11
428.521	42.67
428.728	-26.96
428.936	-80.21
429.143	40.62
429.351	48.81
429.558	38.57
429.765	38.57
429.972	79.53
430.18	-33.11
430.387	-37.2
430.594	-0.34
430.801	34.47
431.009	34.47
431.216	-51.54
431.423	54.95
431.63	114.34
431.838	-12.63
432.045	34.47
432.252	79.53
432.459	26.28
432.666	-63.83
432.873	-102.74
433.081	-2.39
433.288	-29.01
433.495	-49.49
433.702	-24.92
433.909	-69.97
434.116	-14.68
434.323	83.63
434.53	44.71
434.737	61.1
434.944	3.75
435.151	-82.26
435.358	-57.68
435.565	-63.83
435.772	-35.16
435.979	73.39
436.186	20.14
436.393	-31.06
436.6	-69.97
436.807	-35.16
437.014	22.19
437.221	-16.73
437.428	7.85
437.635	-0.34
437.841	-0.34
438.048	30.38
438.255	1.71
438.462	-12.63
438.669	-53.59
438.876	89.77
439.082	3.75
439.289	40.62
439.496	28.33
439.703	-88.4
439.91	67.24
440.116	132.78
440.323	-43.35
440.53	7.85
440.737	-33.11
440.943	-37.2
441.15	42.67
441.357	97.96
441.563	20.14
441.77	1.71
441.977	30.38
442.183	54.95
442.39	-2.39
442.597	7.85
442.803	-41.3
443.01	36.52
443.216	36.52
443.423	46.76
443.63	-61.78
443.836	126.63
444.043	28.33
444.249	-76.12
444.456	-47.44
444.662	32.43
444.869	-55.64
445.075	30.38
445.282	69.29
445.488	-12.63
445.695	-6.49
445.901	-65.88
446.107	16.04
446.314	32.43
446.52	-55.64
446.727	-84.31
446.933	-37.2
447.139	163.5
447.346	-80.21
447.552	-20.82
447.759	-145.75
447.965	-72.02
448.171	-67.92
448.378	-33.11
448.584	-69.97
448.79	-16.73
448.996	-2.39
449.203	-29.01
449.409	13.99
449.615	-8.53
449.821	-31.06
450.028	20.14
450.234	-24.92
450.44	71.34
450.646	20.14
450.852	26.28
451.059	-29.01
451.265	-84.31
451.471	-133.46
451.677	-61.78
451.883	-39.25
452.089	46.76
452.295	-88.4
452.502	-45.4
452.708	67.24
452.914	22.19
453.12	-37.2
453.326	-59.73
453.532	-121.17
453.738	85.67
453.944	11.95
454.15	-61.78
454.356	-8.53
454.562	75.43
454.768	-2.39
454.974	46.76
455.18	7.85
455.386	89.77
455.592	-45.4
455.798	-12.63
456.003	-78.16
456.209	-26.96
456.415	18.09
456.621	40.62
456.827	9.9
457.033	-74.07
457.239	-78.16
457.444	-47.44
457.65	-41.3
457.856	-0.34
458.062	-49.49
458.268	71.34
458.473	7.85
458.679	-4.44
458.885	-96.6
459.091	-33.11
459.296	-6.49
459.502	-6.49
459.708	9.9
459.914	-106.84
460.119	-14.68
460.325	-10.58
460.531	-61.78
460.736	-14.68
460.942	24.23
461.147	-29.01
461.353	-20.82
461.559	44.71
461.764	11.95
461.97	-45.4
462.175	-20.82
462.381	-0.34
462.587	26.28
462.792	18.09
462.998	32.43
463.203	-57.68
463.409	-39.25
463.614	-20.82
463.82	32.43
464.025	48.81
464.231	-37.2
464.436	30.38
464.641	24.23
464.847	54.95
465.052	-102.74
465.258	-24.92
465.463	-39.25
465.669	-55.64
465.874	-49.49
466.079	145.06
466.285	-69.97
466.49	-117.08
466.695	-78.16
466.901	-51.54
467.106	61.1
467.311	-47.44
467.516	-61.78
467.722	-59.73
467.927	26.28
468.132	122.54
468.338	-43.35
468.543	-29.01
468.748	83.63
468.953	-129.36
469.158	-74.07
469.364	16.04
469.569	-63.83
469.774	-31.06
469.979	-43.35
470.184	-45.4
470.389	1.71
470.594	-112.98
470.8	-18.77
471.005	-65.88
471.21	32.43
471.415	34.47
471.62	44.71
471.825	67.24
472.03	-6.49
472.235	-69.97
472.44	-53.59
472.645	16.04
472.85	46.76
473.055	-18.77
473.26	-61.78
473.465	13.99
473.67	59.05
473.875	-41.3
474.08	-63.83
474.285	-82.26
474.49	-45.4
474.695	-16.73
474.899	75.43
475.104	18.09
475.309	-69.97
475.514	-12.63
475.719	-45.4
475.924	159.4
476.128	-2.39
476.333	3.75
476.538	61.1
476.743	-110.93
476.948	7.85
477.152	-41.3
477.357	-22.87
477.562	-41.3
477.767	69.29
477.971	69.29
478.176	-37.2
478.381	-12.63
478.585	38.57
478.79	-80.21
478.995	18.09
479.199	-29.01
479.404	38.57
479.609	32.43
479.813	-0.34
480.018	-8.53
480.223	-2.39
480.427	-55.64
480.632	-76.12
480.836	73.39
481.041	-2.39
481.245	-57.68
481.45	52.91
481.654	-22.87
481.859	1.71
482.063	42.67
482.268	42.67
482.472	-55.64
482.677	52.91
482.881	-26.96
483.086	-0.34
483.29	18.09
483.495	-4.44
483.699	-74.07
483.903	46.76
484.108	69.29
484.312	-67.92
484.517	-16.73
484.721	40.62
484.925	-82.26
485.13	-59.73
485.334	-4.44
485.538	-8.53
485.743	61.1
485.947	-0.34
486.151	16.04
486.355	112.3
486.56	-8.53
486.764	40.62
486.968	-65.88
487.172	-22.87
487.377	40.62
487.581	-33.11
487.785	-18.77
487.989	28.33
488.193	24.23
488.397	-14.68
488.602	-76.12
488.806	-24.92
489.01	-74.07
489.214	-59.73
489.418	-16.73
489.622	-20.82
489.826	57
490.03	22.19
490.234	-55.64
490.438	-119.12
490.642	-61.78
490.846	36.52
491.05	30.38
491.254	-67.92
491.458	40.62
491.662	11.95
491.866	16.04
492.07	-45.4
492.274	59.05
492.478	52.91
492.682	36.52
492.886	-8.53
493.09	-53.59
493.294	-76.12
493.498	20.14
493.701	-94.55
493.905	-78.16
494.109	-86.36
494.313	-88.4
494.517	50.86
494.721	13.99
494.924	7.85
495.128	-31.06
495.332	-0.34
495.536	20.14
495.739	-8.53
495.943	-18.77
496.147	40.62
496.351	13.99
496.554	-53.59
496.758	52.91
496.962	-8.53
497.165	20.14
497.369	16.04
497.573	-98.64
497.776	40.62
497.98	-39.25
498.184	40.62
498.387	-55.64
498.591	48.81
498.794	-0.34
498.998	-22.87
499.202	-14.68
499.405	38.57
499.609	-29.01
499.812	1.71
500.016	-45.4
500.219	87.72
500.423	-37.2
500.626	13.99
500.83	-18.77
501.033	134.82
501.237	-39.25
501.44	65.19
501.643	-37.2
501.847	-20.82
502.05	-18.77
502.254	-49.49
502.457	48.81
502.66	-94.55
502.864	-26.96
503.067	-82.26
503.271	-110.93
503.474	-61.78
503.677	-76.12
503.88	-53.59
504.084	-82.26
504.287	-4.44
504.49	1.71
504.694	75.43
504.897	-20.82
505.1	-8.53
505.303	-82.26
505.507	-29.01
505.71	-82.26
505.913	-0.34
506.116	-67.92
506.319	-39.25
506.522	91.82
506.726	-59.73
506.929	11.95
507.132	-67.92
507.335	50.86
507.538	20.14
507.741	97.96
507.944	-14.68
508.147	102.06
508.35	-121.17
508.553	52.91
508.756	16.04
508.959	-76.12
509.163	-35.16
509.366	-29.01
509.569	-78.16
509.771	-80.21
509.974	-37.2
510.177	11.95
510.38	-43.35
510.583	79.53
510.786	36.52
510.989	46.76
511.192	-74.07
511.395	28.33
511.598	36.52
511.801	52.91
512.004	-37.2
512.206	48.81
512.409	-57.68
512.612	7.85
512.815	-88.4
513.018	13.99
513.22	-51.54
513.423	-100.69
513.626	-55.64
513.829	118.44
514.032	-35.16
514.234	24.23
514.437	1.71
514.64	-22.87
514.842	85.67
515.045	104.11
515.248	-82.26
515.45	-78.16
515.653	30.38
515.856	13.99
516.058	38.57
516.261	63.15
516.464	-8.53
516.666	16.04
516.869	-14.68
517.071	-94.55
517.274	-88.4
517.477	-8.53
517.679	-49.49
517.882	-0.34
518.084	-67.92
518.287	-86.36
518.489	126.63
518.692	-57.68
518.894	-41.3
519.097	-88.4
519.299	9.9
519.501	63.15
519.704	-104.79
519.906	-8.53
520.109	-26.96
520.311	-31.06
520.514	100.01
520.716	7.85
520.918	3.75
521.121	28.33
521.323	-57.68
521.525	-14.68
521.728	-82.26
521.93	28.33
522.132	-53.59
522.335	-12.63
522.537	18.09
522.739	-12.63
522.941	24.23
523.144	-16.73
523.346	-31.06
523.548	1.71
523.75	-90.45
523.952	-78.16
524.155	9.9
524.357	-141.65
524.559	13.99
524.761	-12.63
524.963	-57.68
525.165	-14.68
525.368	-74.07
525.57	20.14
525.772	65.19
525.974	-61.78
526.176	-16.73
526.378	50.86
526.58	77.48
526.782	100.01
526.984	11.95
527.186	-98.64
527.388	-76.12
527.59	-39.25
527.792	-47.44
527.994	-74.07
528.196	75.43
528.398	-12.63
528.6	69.29
528.802	22.19
529.004	-39.25
529.206	-2.39
529.408	77.48
529.609	-22.87
529.811	-51.54
530.013	54.95
530.215	-16.73
530.417	44.71
530.619	-8.53
530.821	46.76
531.022	77.48
531.224	-92.5
531.426	26.28
531.628	-18.77
531.829	22.19
532.031	-78.16
532.233	-16.73
532.435	-80.21
532.636	-76.12
532.838	11.95
533.04	3.75
533.241	-59.73
533.443	7.85
533.645	-51.54
533.846	59.05
534.048	22.19
534.25	-24.92
534.451	-18.77
534.653	-24.92
534.855	-139.6
535.056	-92.5
535.258	26.28
535.459	-51.54
535.661	22.19
535.862	52.91
536.064	-2.39
536.265	-51.54
536.467	16.04
536.668	-24.92
536.87	-20.82
537.071	-4.44
537.273	-29.01
537.474	-37.2
537.676	-53.59
537.877	-49.49
538.078	-12.63
538.28	79.53
538.481	1.71
538.683	-53.59
538.884	-16.73
539.085	22.19
539.287	79.53
539.488	-4.44
539.689	-37.2
539.891	36.52
540.092	-4.44
540.293	36.52
540.495	22.19
540.696	-47.44
540.897	13.99
541.098	-10.58
541.3	36.52
541.501	24.23
541.702	16.04
541.903	3.75
542.104	69.29
542.306	-18.77
542.507	-18.77
542.708	-43.35
542.909	-0.34
543.11	34.47
543.311	18.09
543.512	-35.16
543.713	57
543.915	-47.44
544.116	-22.87
544.317	-14.68
544.518	194.22
544.719	-6.49
544.92	20.14
545.121	13.99
545.322	16.04
545.523	-2.39
545.724	-31.06
545.925	-37.2
546.126	-41.3
546.327	20.14
546.528	34.47
546.729	-72.02
546.929	-22.87
547.13	-98.64
547.331	-53.59
547.532	59.05
547.733	-20.82
547.934	48.81
548.135	61.1
548.336	-49.49
548.536	54.95
548.737	-37.2
548.938	89.77
549.139	1.71
549.34	24.23
549.54	-2.39
549.741	-104.79
549.942	-49.49
550.143	-74.07
550.343	-22.87
550.544	112.3
550.745	22.19
550.945	-86.36
551.146	57
551.347	-37.2
551.547	-61.78
551.748	-20.82
551.949	75.43
552.149	97.96
552.35	79.53
552.551	26.28
552.751	63.15
552.952	-14.68
553.152	-8.53
553.353	-0.34
553.553	-10.58
553.754	52.91
553.954	-59.73
554.155	-65.88
554.356	-10.58
554.556	32.43
554.756	-59.73
554.957	44.71
555.157	36.52
555.358	102.06
555.558	-92.5
555.759	-22.87
555.959	-43.35
556.159	-33.11
556.36	-65.88
556.56	9.9
556.761	-26.96
556.961	20.14
557.161	5.8
557.362	3.75
557.562	1.71
557.762	42.67
557.963	-4.44
558.163	140.97
558.363	-49.49
558.563	-8.53
558.764	36.52
558.964	-43.35
559.164	-8.53
559.364	-16.73
559.565	57
559.765	-45.4
559.965	-47.44
560.165	-20.82
560.365	106.15
560.565	28.33
560.766	-41.3
560.966	-88.4
561.166	65.19
561.366	-8.53
561.566	157.35
561.766	-186.71
561.966	-96.6
562.166	-8.53
562.366	-35.16
562.566	-26.96
562.766	-6.49
562.966	24.23
563.166	-80.21
563.366	-51.54
563.566	-24.92
563.766	-18.77
563.966	13.99
564.166	38.57
564.366	91.82
564.566	63.15
564.766	-18.77
564.966	48.81
565.166	-100.69
565.366	-24.92
565.565	32.43
565.765	-74.07
565.965	-43.35
566.165	16.04
566.365	-22.87
566.565	-2.39
566.764	-31.06
566.964	-84.31
567.164	11.95
567.364	61.1
567.564	-119.12
567.763	-6.49
567.963	-12.63
568.163	61.1
568.362	-8.53
568.562	-2.39
568.762	-65.88
568.961	42.67
569.161	-37.2
569.361	-127.32
569.56	69.29
569.76	65.19
569.96	34.47
570.159	32.43
570.359	-69.97
570.558	34.47
570.758	65.19
570.958	65.19
571.157	13.99
571.357	22.19
571.556	-69.97
571.756	-2.39
571.955	20.14
572.155	87.72
572.354	110.25
572.554	-78.16
572.753	-41.3
572.953	-16.73
573.152	5.8
573.351	-22.87
573.551	-37.2
573.75	-31.06
573.95	91.82
574.149	-0.34
574.348	-26.96
574.548	48.81
574.747	-100.69
574.946	-31.06
575.146	-14.68
575.345	18.09
575.544	-31.06
575.744	-37.2
575.943	1.71
576.142	102.06
576.342	7.85
576.541	71.34
576.74	13.99
576.939	-80.21
577.138	-22.87
577.338	40.62
577.537	-6.49
577.736	-86.36
577.935	3.75
578.134	-49.49
578.333	-45.4
578.533	54.95
578.732	-43.35
578.931	18.09
579.13	16.04
579.329	-20.82
579.528	-100.69
579.727	-8.53
579.926	5.8
580.125	20.14
580.324	-35.16
580.523	77.48
580.722	-47.44
580.921	22.19
581.12	-67.92
581.319	-12.63
581.518	-41.3
581.717	48.81
581.916	-12.63
582.115	-33.11
582.314	-4.44
582.513	-47.44
582.712	7.85
582.911	9.9
583.109	-26.96
583.308	34.47
583.507	67.24
583.706	-125.27
583.905	22.19
584.104	-92.5
584.302	44.71
584.501	24.23
584.7	32.43
584.899	71.34
585.098	-80.21
585.296	-96.6
585.495	-2.39
585.694	-6.49
585.892	-41.3
586.091	-18.77
586.29	-24.92
586.488	-24.92
586.687	-86.36
586.886	-51.54
587.084	16.04
587.283	9.9
587.482	-125.27
587.68	151.21
587.879	13.99
588.077	-43.35
588.276	-96.6
588.475	18.09
588.673	-47.44
588.872	-0.34
589.07	36.52
589.269	-37.2
589.467	-24.92
589.666	24.23
589.864	-55.64
590.063	-4.44
590.261	22.19
590.46	-80.21
590.658	40.62
590.857	-57.68
591.055	-51.54
591.253	52.91
591.452	52.91
591.65	-45.4
591.848	-74.07
592.047	18.09
592.245	48.81
592.444	22.19
592.642	-33.11
592.84	32.43
593.038	28.33
593.237	20.14
593.435	-14.68
593.633	-61.78
593.832	-57.68
594.03	-78.16
594.228	-65.88
594.426	-47.44
594.624	18.09
594.823	1.71
595.021	-51.54
595.219	-26.96
595.417	52.91
595.615	-29.01
595.813	-26.96
596.012	-14.68
596.21	-29.01
596.408	104.11
596.606	-37.2
596.804	87.72
597.002	-4.44
597.2	-31.06
597.398	-76.12
597.596	-10.58
597.794	106.15
597.992	91.82
598.19	50.86
598.388	-26.96
598.586	-24.92
598.784	-26.96
598.982	-35.16
599.18	22.19
599.378	50.86
599.576	93.87
599.774	79.53
599.972	97.96
600.17	50.86
600.368	-123.22
600.565	110.25
600.763	-12.63
600.961	-131.41
601.159	13.99
601.357	44.71
601.555	-2.39
601.752	-26.96
601.95	61.1
602.148	89.77
602.346	-26.96
602.544	-8.53
602.741	-67.92
602.939	-78.16
603.137	108.2
603.334	7.85
603.532	48.81
603.73	9.9
603.927	26.28
604.125	-131.41
604.323	26.28
604.52	89.77
604.718	-31.06
604.916	48.81
605.113	-6.49
605.311	-69.97
605.508	1.71
605.706	28.33
605.904	13.99
606.101	-49.49
606.299	-4.44
606.496	24.23
606.694	63.15
606.891	-8.53
607.089	-55.64
607.286	57
607.484	38.57
607.681	-22.87
607.879	-8.53
608.076	16.04
608.273	28.33
608.471	9.9
608.668	11.95
608.866	-35.16
609.063	26.28
609.26	-10.58
609.458	130.73
609.655	44.71
609.852	-88.4
610.05	18.09
610.247	-41.3
610.444	67.24
610.642	3.75
610.839	42.67
611.036	-33.11
611.233	-121.17
611.431	-51.54
611.628	-112.98
611.825	-31.06
612.022	24.23
612.22	-47.44
612.417	5.8
612.614	-14.68
612.811	7.85
613.008	18.09
613.205	-37.2
613.402	75.43
613.6	65.19
613.797	44.71
613.994	-131.41
614.191	-59.73
614.388	-10.58
614.585	-8.53
614.782	-0.34
614.979	-29.01
615.176	-33.11
615.373	-43.35
615.57	34.47
615.767	3.75
615.964	97.96
616.161	57
616.358	-26.96
616.555	-4.44
616.752	-4.44
616.949	30.38
617.146	-39.25
617.343	-31.06
617.539	-35.16
617.736	69.29
617.933	-18.77
618.13	-65.88
618.327	18.09
618.524	16.04
618.721	-49.49
618.917	9.9
619.114	16.04
619.311	-131.41
619.508	7.85
619.704	-78.16
619.901	18.09
620.098	-119.12
620.295	147.11
620.491	-0.34
620.688	-65.88
620.885	-51.54
621.081	7.85
621.278	22.19
621.475	-63.83
621.671	7.85
621.868	69.29
622.065	24.23
622.261	61.1
622.458	114.34
622.655	-6.49
622.851	-31.06
623.048	-16.73
623.244	-80.21
623.441	38.57
623.637	104.11
623.834	26.28
624.03	5.8
624.227	-2.39
624.423	-0.34
624.62	63.15
624.816	-14.68
625.013	-82.26
625.209	-18.77
625.406	-16.73
625.602	18.09
625.798	-24.92
625.995	67.24
626.191	-37.2
626.388	38.57
626.584	-80.21
626.78	143.02
626.977	-119.12
627.173	-78.16
627.369	-39.25
627.566	-143.7
627.762	-115.03
627.958	16.04
628.154	-100.69
628.351	-10.58
628.547	-18.77
628.743	36.52
628.939	18.09
629.136	-90.45
629.332	-49.49
629.528	-53.59
629.724	3.75
629.92	-8.53
630.116	52.91
630.313	26.28
630.509	-0.34
630.705	-43.35
630.901	-49.49
631.097	5.8
631.293	11.95
631.489	-16.73
631.685	-18.77
631.881	-61.78
632.077	-8.53
632.273	3.75
632.469	65.19
632.665	-61.78
632.861	-6.49
633.057	-8.53
633.253	-29.01
633.449	-67.92
633.645	11.95
633.841	-16.73
634.037	122.54
634.233	22.19
634.429	-10.58
634.625	-31.06
634.821	-92.5
635.017	24.23
635.212	-6.49
635.408	-16.73
635.604	61.1
635.8	95.91
635.996	-72.02
636.191	1.71
636.387	-69.97
636.583	7.85
636.779	-47.44
636.975	3.75
637.17	73.39
637.366	57
637.562	-76.12
637.757	20.14
637.953	-31.06
638.149	73.39
638.345	50.86
638.54	-8.53
638.736	63.15
638.931	-26.96
639.127	3.75
639.323	-20.82
639.518	-31.06
639.714	-96.6
639.909	-0.34
640.105	11.95
640.301	-47.44
640.496	5.8
640.692	-31.06
640.887	-61.78
641.083	13.99
641.278	7.85
641.474	-63.83
641.669	-12.63
641.865	9.9
642.06	-86.36
642.256	-20.82
642.451	42.67
642.646	116.39
642.842	-72.02
643.037	16.04
643.233	-69.97
643.428	-84.31
643.623	-8.53
643.819	22.19
644.014	75.43
644.209	-6.49
644.405	16.04
644.6	9.9
644.795	-10.58
644.99	26.28
645.186	-12.63
645.381	57
645.576	71.34
645.771	-14.68
645.967	-78.16
646.162	48.81
646.357	-110.93
646.552	36.52
646.747	-96.6
646.943	-2.39
647.138	34.47
647.333	-0.34
647.528	-10.58
647.723	-61.78
647.918	-72.02
648.113	73.39
648.308	3.75
648.504	38.57
648.699	48.81
648.894	59.05
649.089	-55.64
649.284	-16.73
649.479	77.48
649.674	50.86
649.869	63.15
650.064	91.82
650.259	-178.51
650.454	5.8
650.649	20.14
650.844	-29.01
651.038	57
651.233	-43.35
651.428	-10.58
651.623	18.09
651.818	-45.4
652.013	-67.92
652.208	3.75
652.403	1.71
652.597	36.52
652.792	-61.78
652.987	93.87
653.182	26.28
653.377	-4.44
653.571	124.58
653.766	-35.16
653.961	-53.59
654.156	46.76
654.35	-2.39
654.545	61.1
654.74	-37.2
654.935	128.68
655.129	-33.11
655.324	-57.68
655.519	67.24
655.713	46.76
655.908	-174.42
656.102	-4.44
656.297	1.71
656.492	11.95
656.686	-10.58
656.881	-12.63
657.075	-45.4
657.27	-45.4
657.464	36.52
657.659	-49.49
657.854	-0.34
658.048	-72.02
658.243	-18.77
658.437	30.38
658.631	50.86
658.826	42.67
659.02	-59.73
659.215	20.14
659.409	26.28
659.604	-76.12
659.798	-47.44
659.992	-29.01
660.187	67.24
660.381	46.76
660.576	-69.97
660.77	-59.73
660.964	-2.39
661.159	-74.07
661.353	-59.73
661.547	61.1
661.742	71.34
661.936	-14.68
662.13	22.19
662.324	128.68
662.519	89.77
662.713	-119.12
662.907	-37.2
663.101	-115.03
663.295	77.48
663.49	-33.11
663.684	-49.49
663.878	13.99
664.072	20.14
664.266	69.29
664.46	-106.84
664.654	-37.2
664.849	38.57
665.043	-16.73
665.237	13.99
665.431	-65.88
665.625	-35.16
665.819	50.86
666.013	-2.39
666.207	-119.12
666.401	67.24
666.595	-49.49
666.789	18.09
666.983	-37.2
667.177	-90.45
667.371	18.09
667.565	-45.4
667.759	65.19
667.953	-12.63
668.147	-2.39
668.34	-100.69
668.534	-12.63
668.728	34.47
668.922	-26.96
669.116	-57.68
669.31	-100.69
669.504	32.43
669.697	28.33
669.891	-29.01
670.085	-4.44
670.279	116.39
670.473	-96.6
670.666	-72.02
670.86	1.71
671.054	-0.34
671.248	3.75
671.441	-80.21
671.635	61.1
671.829	-108.88
672.022	-53.59
672.216	67.24
672.41	-8.53
672.603	22.19
672.797	-8.53
672.99	52.91
673.184	-39.25
673.378	3.75
673.571	-20.82
673.765	11.95
673.958	-33.11
674.152	-18.77
674.345	-98.64
674.539	-4.44
674.733	-45.4
674.926	-8.53
675.12	-147.8
675.313	-33.11
675.506	36.52
675.7	40.62
675.893	-45.4
676.087	46.76
676.28	-57.68
676.474	-35.16
676.667	-53.59
676.86	-20.82
677.054	-12.63
677.247	20.14
677.441	153.26
677.634	-49.49
677.827	18.09
678.02	42.67
678.214	1.71
678.407	-18.77
678.6	-6.49
678.794	-8.53
678.987	7.85
679.18	83.63
679.373	-65.88
679.567	32.43
679.76	-33.11
679.953	-59.73
680.146	-63.83
680.339	3.75
680.533	20.14
680.726	-31.06
680.919	-20.82
681.112	75.43
681.305	20.14
681.498	-67.92
681.691	13.99
681.884	-2.39
682.077	-104.79
682.271	42.67
682.464	46.76
682.657	13.99
682.85	-0.34
683.043	-63.83
683.236	81.58
683.429	97.96
683.622	-12.63
683.815	65.19
684.008	-10.58
684.201	-12.63
684.393	-16.73
684.586	7.85
684.779	73.39
684.972	-80.21
685.165	79.53
685.358	69.29
685.551	75.43
685.744	52.91
685.937	79.53
686.129	-65.88
686.322	77.48
686.515	-10.58
686.708	5.8
686.901	28.33
687.093	13.99
687.286	75.43
687.479	-10.58
687.672	-67.92
687.864	-24.92
688.057	-33.11
688.25	1.71
688.442	-2.39
688.635	9.9
688.828	-94.55
689.02	40.62
689.213	-18.77
689.406	-45.4
689.598	-88.4
689.791	32.43
689.984	-63.83
690.176	116.39
690.369	63.15
690.561	16.04
690.754	46.76
690.946	79.53
691.139	40.62
691.331	87.72
691.524	-26.96
691.716	118.44
691.909	-24.92
692.101	-55.64
692.294	81.58
692.486	-41.3
692.679	9.9
692.871	-37.2
693.063	-14.68
693.256	-0.34
693.448	-78.16
693.641	79.53
693.833	7.85
694.025	50.86
694.218	67.24
694.41	50.86
694.602	-61.78
694.795	-16.73
694.987	7.85
695.179	44.71
695.372	-61.78
695.564	-43.35
695.756	-8.53
695.948	-59.73
696.14	-39.25
696.333	71.34
696.525	-12.63
696.717	-47.44
696.909	40.62
697.101	-6.49
697.294	-86.36
697.486	-8.53
697.678	3.75
697.87	20.14
698.062	-90.45
698.254	-55.64
698.446	18.09
698.638	-4.44
698.83	-24.92
699.022	-39.25
699.215	-55.64
699.407	-61.78
699.599	-100.69
699.791	42.67
699.983	-119.12
700.175	-47.44
700.367	52.91
700.558	32.43
700.75	-37.2
700.942	-33.11
701.134	-2.39
701.326	-12.63
701.518	67.24
701.71	20.14
701.902	-127.32
702.094	24.23
702.286	-135.51
702.477	46.76
702.669	-86.36
702.861	-37.2
703.053	-29.01
703.245	-67.92
703.436	-0.34
703.628	-16.73
703.82	-59.73
704.012	-31.06
704.203	-20.82
704.395	-0.34
704.587	20.14
704.779	7.85
704.97	-78.16
705.162	-86.36
705.354	-10.58
705.545	16.04
705.737	1.71
705.929	-35.16
706.12	-6.49
706.312	40.62
706.503	-65.88
706.695	32.43
706.887	-41.3
707.078	7.85
707.27	-76.12
707.461	59.05
707.653	-100.69
707.844	9.9
708.036	-16.73
708.227	-43.35
708.419	9.9
708.61	79.53
708.802	9.9
708.993	26.28
709.185	24.23
709.376	-12.63
709.567	-6.49
709.759	-55.64
709.95	-104.79
710.141	24.23
710.333	-6.49
710.524	-8.53
710.716	30.38
710.907	-61.78
711.098	-6.49
711.289	-63.83
711.481	57
711.672	7.85
711.863	7.85
712.055	173.74
712.246	-10.58
712.437	11.95
712.628	-45.4
712.82	24.23
713.011	-37.2
713.202	16.04
713.393	22.19
713.584	22.19
713.775	-6.49
713.967	-0.34
714.158	38.57
714.349	22.19
714.54	-8.53
714.731	112.3
714.922	3.75
715.113	-26.96
715.304	-59.73
715.495	-33.11
715.686	-61.78
715.877	-24.92
716.068	46.76
716.259	-35.16
716.45	77.48
716.641	5.8
716.832	-31.06
717.023	-84.31
717.214	-69.97
717.405	1.71
717.596	-14.68
717.787	136.87
717.978	30.38
718.169	-6.49
718.36	-115.03
718.55	-24.92
718.741	57
718.932	-20.82
719.123	-2.39
719.314	151.21
719.505	46.76
719.695	46.76
719.886	52.91
720.077	24.23
720.268	-104.79
720.458	-16.73
720.649	-61.78
720.84	7.85
721.031	-35.16
721.221	85.67
721.412	-100.69
721.603	-78.16
721.793	-74.07
721.984	11.95
722.175	-67.92
722.365	48.81
722.556	-88.4
722.746	16.04
722.937	18.09
723.128	-24.92
723.318	9.9
723.509	34.47
723.699	114.34
723.89	102.06
724.08	42.67
724.271	24.23
724.461	-69.97
724.652	-4.44
724.842	-108.88
725.033	-65.88
725.223	-6.49
725.414	42.67
725.604	-45.4
725.794	-63.83
725.985	54.95
726.175	-35.16
726.366	-55.64
726.556	-4.44
726.746	-90.45
726.937	81.58
727.127	40.62
727.317	-78.16
727.508	-72.02
727.698	-69.97
727.888	-88.4
728.079	-8.53
728.269	7.85
728.459	75.43
728.649	-94.55
728.84	-16.73
729.03	30.38
729.22	-49.49
729.41	18.09
729.6	20.14
729.791	5.8
729.981	1.71
730.171	30.38
730.361	24.23
730.551	-26.96
730.741	-74.07
730.931	13.99
731.121	116.39
731.311	-76.12
731.502	-8.53
731.692	-72.02
731.882	-26.96
732.072	-0.34
732.262	13.99
732.452	-57.68
732.642	85.67
732.832	20.14
733.022	26.28
733.212	-69.97
733.402	91.82
733.591	24.23
733.781	-20.82
733.971	-102.74
734.161	-20.82
734.351	-80.21
734.541	171.69
734.731	-8.53
734.921	-35.16
735.111	46.76
735.3	-26.96
735.49	-41.3
735.68	-24.92
735.87	65.19
736.06	-20.82
736.249	-35.16
736.439	3.75
736.629	-8.53
736.819	1.71
737.008	13.99
737.198	9.9
737.388	-63.83
737.577	-43.35
737.767	38.57
737.957	-10.58
738.146	-18.77
738.336	24.23
738.526	-10.58
738.715	-2.39
738.905	-39.25
739.094	-76.12
739.284	108.2
739.474	69.29
739.663	42.67
739.853	30.38
740.042	1.71
740.232	-35.16
740.421	126.63
740.611	-24.92
740.8	-41.3
740.99	-108.88
741.179	-29.01
741.369	81.58
741.558	-31.06
741.748	-39.25
741.937	-51.54
742.126	-41.3
742.316	-4.44
742.505	-69.97
742.695	-98.64
742.884	85.67
743.073	-35.16
743.263	11.95
743.452	81.58
743.641	9.9
743.831	-0.34
744.02	-74.07
744.209	24.23
744.398	-39.25
744.588	-14.68
744.777	-12.63
744.966	20.14
745.155	20.14
745.345	-8.53
745.534	16.04
745.723	-31.06
745.912	52.91
746.101	-29.01
746.29	-63.83
746.48	-31.06
746.669	11.95
746.858	18.09
747.047	-63.83
747.236	16.04
747.425	75.43
747.614	-22.87
747.803	-10.58
747.992	-84.31
748.181	-14.68
748.37	22.19
748.559	11.95
748.748	-92.5
748.937	32.43
749.126	-26.96
749.315	-47.44
749.504	-31.06
749.693	75.43
749.882	67.24
750.071	-39.25
750.26	-133.46
750.449	-4.44
750.638	57
750.826	18.09
751.015	-6.49
751.204	20.14
751.393	-31.06
751.582	52.91
751.771	-47.44
751.959	71.34
752.148	-4.44
752.337	30.38
752.526	16.04
752.714	38.57
752.903	-0.34
753.092	54.95
753.281	-31.06
753.469	26.28
753.658	-18.77
753.847	1.71
754.035	52.91
754.224	-86.36
754.413	9.9
754.601	20.14
754.79	-2.39
754.979	42.67
755.167	59.05
755.356	-18.77
755.544	69.29
755.733	-147.8
755.921	71.34
756.11	3.75
756.298	-123.22
756.487	85.67
756.675	-0.34
756.864	-29.01
757.052	11.95
757.241	-10.58
757.429	-10.58
757.618	-26.96
757.806	67.24
757.995	54.95
758.183	20.14
758.371	-49.49
758.56	-18.77
758.748	57
758.937	18.09
759.125	102.06
759.313	63.15
759.502	54.95
759.69	3.75
759.878	24.23
760.066	-170.32
760.255	-47.44
760.443	-115.03
760.631	65.19
760.819	-14.68
761.008	-137.56
761.196	46.76
761.384	28.33
761.572	-53.59
761.761	38.57
761.949	-76.12
762.137	30.38
762.325	-49.49
762.513	-0.34
762.701	-51.54
762.889	-14.68
763.077	-88.4
763.266	-110.93
763.454	13.99
763.642	-67.92
763.83	20.14
764.018	-35.16
764.206	-88.4
764.394	122.54
764.582	18.09
764.77	18.09
764.958	18.09
765.146	-104.79
765.334	1.71
765.522	-24.92
765.71	5.8
765.898	-43.35
766.085	9.9
766.273	-20.82
766.461	-61.78
766.649	-78.16
766.837	38.57
767.025	102.06
767.213	57
767.401	-16.73
767.588	-45.4
767.776	-26.96
767.964	-82.26
768.152	38.57
768.339	-76.12
768.527	77.48
768.715	-2.39
768.903	13.99
769.09	44.71
769.278	-57.68
769.466	-39.25
769.654	-18.77
769.841	-20.82
770.029	138.92
770.217	-80.21
770.404	24.23
770.592	-39.25
770.779	57
770.967	52.91
771.155	75.43
771.342	42.67
771.53	-14.68
771.717	-43.35
771.905	-67.92
772.092	83.63
772.28	24.23
772.467	-26.96
772.655	24.23
772.842	-84.31
773.03	-16.73
773.217	-59.73
773.405	63.15
773.592	67.24
773.78	26.28
773.967	-10.58
774.154	-37.2
774.342	40.62
774.529	-72.02
774.717	-65.88
774.904	-4.44
775.091	20.14
775.279	-0.34
775.466	-47.44
775.653	-4.44
775.841	-43.35
776.028	16.04
776.215	-8.53
776.402	11.95
776.59	-63.83
776.777	18.09
776.964	-80.21
777.151	16.04
777.338	-37.2
777.526	-51.54
777.713	-8.53
777.9	-72.02
778.087	-158.03
778.274	-24.92
778.461	3.75
778.649	50.86
778.836	-88.4
779.023	91.82
779.21	7.85
779.397	9.9
779.584	-78.16
779.771	67.24
779.958	24.23
780.145	57
780.332	-53.59
780.519	9.9
780.706	16.04
780.893	7.85
781.08	-67.92
781.267	20.14
781.454	-8.53
781.641	59.05
781.828	71.34
782.015	50.86
782.202	-2.39
782.388	-102.74
782.575	-78.16
782.762	52.91
782.949	-0.34
783.136	-14.68
783.323	11.95
783.509	16.04
783.696	7.85
783.883	57
784.07	34.47
784.257	18.09
784.443	100.01
784.63	-78.16
784.817	13.99
785.004	-16.73
785.19	-63.83
785.377	-82.26
785.564	-12.63
785.75	-4.44
785.937	52.91
786.124	1.71
786.31	32.43
786.497	-20.82
786.683	28.33
786.87	-6.49
787.057	20.14
787.243	77.48
787.43	-31.06
787.616	28.33
787.803	3.75
787.989	57
788.176	106.15
788.362	20.14
788.549	-72.02
788.735	-94.55
788.922	13.99
789.108	-0.34
789.295	5.8
789.481	-57.68
789.668	20.14
789.854	34.47
790.04	-16.73
790.227	-18.77
790.413	18.09
790.599	-0.34
790.786	1.71
790.972	3.75
791.158	30.38
791.345	93.87
791.531	3.75
791.717	-22.87
791.904	-69.97
792.09	1.71
792.276	67.24
792.462	-72.02
792.649	130.73
792.835	-53.59
793.021	32.43
793.207	-4.44
793.393	-31.06
793.58	16.04
793.766	-26.96
793.952	-35.16
794.138	73.39
794.324	-16.73
794.51	5.8
794.696	-24.92
794.882	-43.35
795.069	30.38
795.255	-31.06
795.441	-35.16
795.627	-22.87
795.813	22.19
795.999	57
796.185	-20.82
796.371	-4.44
796.557	-35.16
796.743	73.39
796.929	22.19
797.115	-82.26
797.3	-35.16
797.486	-65.88
797.672	-121.17
797.858	9.9
798.044	-18.77
798.23	-24.92
798.416	87.72
798.602	-63.83
798.788	106.15
798.973	-121.17
799.159	30.38
799.345	-69.97
799.531	42.67
799.717	44.71
799.902	46.76
800.088	-24.92
800.274	-69.97
800.46	32.43
800.645	-8.53
800.831	-59.73
801.017	5.8
801.202	-14.68
801.388	-96.6
801.574	16.04
801.759	-98.64
801.945	-86.36
802.131	48.81
802.316	18.09
802.502	-133.46
802.687	-2.39
802.873	-10.58
803.058	-43.35
803.244	63.15
803.43	-24.92
803.615	54.95
803.801	-141.65
803.986	59.05
804.172	-49.49
804.357	-45.4
804.543	18.09
804.728	-37.2
804.913	20.14
805.099	-57.68
805.284	28.33
805.47	-43.35
805.655	34.47
805.84	-88.4
806.026	20.14
806.211	-29.01
806.397	7.85
806.582	-51.54
806.767	-125.27
806.953	18.09
807.138	-2.39
807.323	3.75
807.508	-31.06
807.694	11.95
807.879	-84.31
808.064	24.23
808.249	36.52
808.435	138.92
808.62	32.43
808.805	7.85
808.99	18.09
809.175	-43.35
809.361	3.75
809.546	-20.82
809.731	24.23
809.916	-39.25
810.101	-8.53
810.286	-14.68
810.471	-57.68
810.656	-49.49
810.841	-12.63
811.026	-2.39
811.211	38.57
811.396	52.91
811.581	46.76
811.766	-53.59
811.951	69.29
812.136	30.38
812.321	1.71
812.506	-4.44
812.691	1.71
812.876	-45.4
813.061	-16.73
813.246	20.14
813.431	-0.34
813.616	44.71
813.801	-12.63
813.986	42.67
814.17	20.14
814.355	-53.59
814.54	-80.21
814.725	32.43
814.91	-135.51
815.094	20.14
815.279	-59.73
815.464	46.76
815.649	-137.56
815.833	128.68
816.018	-24.92
816.203	50.86
816.388	-131.41
816.572	-22.87
816.757	1.71
816.942	-26.96
817.126	-18.77
817.311	67.24
817.496	-49.49
817.68	57
817.865	-10.58
818.049	11.95
818.234	16.04
818.419	-31.06
818.603	-26.96
818.788	18.09
818.972	-59.73
819.157	134.82
819.341	-106.84
819.526	52.91
819.71	-0.34
819.895	-139.6
820.079	95.91
820.264	44.71
820.448	57
820.633	-49.49
820.817	124.58
821.001	-0.34
821.186	-8.53
821.37	65.19
821.554	-43.35
821.739	-72.02
821.923	-133.46
822.108	67.24
822.292	63.15
822.476	-72.02
822.66	79.53
822.845	-22.87
823.029	-8.53
823.213	9.9
823.398	73.39
823.582	-10.58
823.766	30.38
823.95	-65.88
824.134	-33.11
824.319	-6.49
824.503	-43.35
824.687	63.15
824.871	81.58
825.055	89.77
825.239	34.47
825.423	-49.49
825.608	-117.08
825.792	-33.11
825.976	-61.78
826.16	46.76
826.344	40.62
826.528	-160.08
826.712	83.63
826.896	-39.25
827.08	-26.96
827.264	-94.55
827.448	30.38
827.632	-117.08
827.816	7.85
828	128.68
828.184	9.9
828.368	1.71
828.552	-51.54
828.736	-78.16
828.919	-57.68
829.103	18.09
829.287	-37.2
829.471	34.47
829.655	91.82
829.839	54.95
830.023	-4.44
830.206	-37.2
830.39	-31.06
830.574	18.09
830.758	-20.82
830.941	28.33
831.125	-2.39
831.309	-16.73
831.493	-12.63
831.676	-0.34
831.86	-29.01
832.044	-16.73
832.227	18.09
832.411	-82.26
832.595	-2.39
832.778	-22.87
832.962	-20.82
833.146	-55.64
833.329	-18.77
833.513	83.63
833.696	22.19
833.88	-53.59
834.064	22.19
834.247	20.14
834.431	-43.35
834.614	-0.34
834.798	-106.84
834.981	7.85
835.165	-37.2
835.348	-0.34
835.532	61.1
835.715	-0.34
835.898	18.09
836.082	63.15
836.265	-96.6
836.449	32.43
836.632	-84.31
836.815	-14.68
836.999	-43.35
837.182	-4.44
837.365	-8.53
837.549	52.91
837.732	-63.83
837.915	3.75
838.099	75.43
838.282	-10.58
838.465	-84.31
838.648	87.72
838.832	-86.36
839.015	-24.92
839.198	16.04
839.381	1.71
839.565	-22.87
839.748	-2.39
839.931	-37.2
840.114	-45.4
840.297	34.47
840.48	-16.73
840.663	-96.6
840.847	-31.06
841.03	9.9
841.213	-55.64
841.396	18.09
841.579	89.77
841.762	9.9
841.945	-4.44
842.128	36.52
842.311	-31.06
842.494	20.14
842.677	38.57
842.86	-33.11
843.043	-69.97
843.226	153.26
843.409	-76.12
843.592	91.82
843.775	16.04
843.958	46.76
844.141	26.28
844.323	48.81
844.506	-29.01
844.689	-4.44
844.872	83.63
845.055	28.33
845.238	-2.39
845.42	-59.73
845.603	-110.93
845.786	-6.49
845.969	38.57
846.152	136.87
846.334	85.67
846.517	-6.49
846.7	-49.49
846.883	40.62
847.065	-84.31
847.248	-119.12
847.431	-59.73
847.613	16.04
847.796	22.19
847.979	42.67
848.161	-4.44
848.344	-37.2
848.526	-12.63
848.709	-115.03
848.892	-43.35
849.074	-2.39
849.257	-69.97
849.439	34.47
849.622	-16.73
849.804	20.14
849.987	-110.93
850.169	-29.01
850.352	28.33
850.534	-108.88
850.717	-29.01
850.899	20.14
851.082	91.82
851.264	116.39
851.446	3.75
851.629	-47.44
851.811	5.8
851.994	36.52
852.176	34.47
852.358	-18.77
852.541	-45.4
852.723	-65.88
852.905	50.86
853.088	-112.98
853.27	36.52
853.452	-35.16
853.635	42.67
853.817	-90.45
853.999	46.76
854.181	3.75
854.363	73.39
854.546	-43.35
854.728	-24.92
854.91	50.86
855.092	36.52
855.274	28.33
855.457	-39.25
855.639	-18.77
855.821	-22.87
856.003	52.91
856.185	-4.44
856.367	-10.58
856.549	69.29
856.731	-2.39
856.913	24.23
857.095	-6.49
857.277	26.28
857.459	-2.39
857.641	-6.49
857.823	-92.5
858.005	54.95
858.187	18.09
858.369	-8.53
858.551	-10.58
858.733	-22.87
858.915	-41.3
859.097	-12.63
859.279	24.23
859.461	140.97
859.643	-47.44
859.824	28.33
860.006	26.28
860.188	-26.96
860.37	-26.96
860.552	67.24
860.734	-55.64
860.915	1.71
861.097	-26.96
861.279	18.09
861.461	-12.63
861.642	-6.49
861.824	-43.35
862.006	-8.53
862.188	26.28
862.369	73.39
862.551	-106.84
862.733	-51.54
862.914	-102.74
863.096	57
863.278	-24.92
863.459	13.99
863.641	-16.73
863.822	44.71
864.004	-29.01
864.185	-18.77
864.367	-67.92
864.549	-16.73
864.73	-37.2
864.912	-76.12
865.093	87.72
865.275	-78.16
865.456	-10.58
865.638	71.34
865.819	-4.44
866.001	-43.35
866.182	-31.06
866.363	54.95
866.545	28.33
866.726	-74.07
866.908	69.29
867.089	-2.39
867.27	50.86
867.452	34.47
867.633	-24.92
867.814	63.15
867.996	-6.49
868.177	13.99
868.358	-8.53
868.54	-86.36
868.721	-106.84
868.902	34.47
869.083	5.8
869.265	22.19
869.446	-14.68
869.627	-12.63
869.808	-55.64
869.989	-147.8
870.171	-41.3
870.352	34.47
870.533	-117.08
870.714	13.99
870.895	75.43
871.076	95.91
871.257	-22.87
871.438	-55.64
871.619	-47.44
871.801	-22.87
871.982	57
872.163	-82.26
872.344	26.28
872.525	-35.16
872.706	-6.49
872.887	-0.34
873.068	20.14
873.249	28.33
873.43	-49.49
873.61	-20.82
873.791	75.43
873.972	7.85
874.153	-78.16
874.334	-14.68
874.515	13.99
874.696	-41.3
874.877	-22.87
875.058	-0.34
875.238	-26.96
875.419	16.04
875.6	-108.88
875.781	-29.01
875.962	50.86
876.142	11.95
876.323	-82.26
876.504	26.28
876.685	-76.12
876.865	-117.08
877.046	57
877.227	22.19
877.407	-43.35
877.588	-6.49
877.769	34.47
877.949	16.04
878.13	-55.64
878.311	181.93
878.491	-133.46
878.672	50.86
878.853	-69.97
879.033	28.33
879.214	-33.11
879.394	-63.83
879.575	-131.41
879.755	32.43
879.936	-39.25
880.116	24.23
880.297	-53.59
880.477	16.04
880.658	-86.36
880.838	-45.4
881.019	-14.68
881.199	-43.35
881.38	3.75
881.56	-12.63
881.74	-26.96
881.921	-35.16
882.101	-22.87
882.281	-82.26
882.462	149.16
882.642	-41.3
882.822	28.33
883.003	-14.68
883.183	-47.44
883.363	26.28
883.544	-29.01
883.724	-2.39
883.904	69.29
884.084	22.19
884.265	85.67
884.445	46.76
884.625	-76.12
884.805	9.9
884.985	11.95
885.166	-104.79
885.346	11.95
885.526	-35.16
885.706	102.06
885.886	38.57
886.066	-8.53
886.246	75.43
886.426	18.09
886.606	-22.87
886.787	-94.55
886.967	32.43
887.147	-43.35
887.327	97.96
887.507	34.47
887.687	-47.44
887.867	-63.83
888.047	-72.02
888.227	-31.06
888.406	100.01
888.586	42.67
888.766	-106.84
888.946	-74.07
889.126	7.85
889.306	-35.16
889.486	48.81
889.666	7.85
889.846	18.09
890.025	50.86
890.205	-123.22
890.385	-8.53
890.565	18.09
890.745	67.24
890.924	-8.53
891.104	-131.41
891.284	54.95
891.464	7.85
891.643	32.43
891.823	-43.35
892.003	48.81
892.183	-59.73
892.362	-31.06
892.542	30.38
892.722	5.8
892.901	3.75
893.081	77.48
893.26	-37.2
893.44	-35.16
893.62	52.91
893.799	-55.64
893.979	-26.96
894.158	9.9
894.338	9.9
894.517	-61.78
894.697	28.33
894.877	22.19
895.056	7.85
895.236	-57.68
895.415	-37.2
895.594	85.67
895.774	52.91
895.953	30.38
896.133	26.28
896.312	-22.87
896.492	-45.4
896.671	-45.4
896.85	-20.82
897.03	-61.78
897.209	5.8
897.388	-22.87
897.568	-41.3
897.747	36.52
897.926	-51.54
898.106	-18.77
898.285	-31.06
898.464	9.9
898.643	11.95
898.823	7.85
899.002	-72.02
899.181	93.87
899.36	50.86
899.54	26.28
899.719	-16.73
899.898	13.99
900.077	59.05
900.256	3.75
900.435	-26.96
900.614	9.9
900.794	-10.58
900.973	-4.44
901.152	-41.3
901.331	69.29
901.51	-51.54
901.689	-84.31
901.868	28.33
902.047	87.72
902.226	32.43
902.405	9.9
902.584	-115.03
902.763	5.8
902.942	-22.87
903.121	-90.45
903.3	-35.16
903.479	-53.59
903.658	-53.59
903.837	-86.36
904.015	71.34
904.194	7.85
904.373	26.28
904.552	-26.96
904.731	69.29
904.91	-90.45
905.089	-110.93
905.267	13.99
905.446	-63.83
905.625	63.15
905.804	-22.87
905.982	11.95
906.161	-24.92
906.34	-55.64
906.519	-45.4
906.697	-53.59
906.876	-121.17
907.055	-61.78
907.233	-4.44
907.412	52.91
907.591	1.71
907.769	44.71
907.948	18.09
908.127	-43.35
908.305	89.77
908.484	5.8
908.662	-26.96
908.841	-29.01
909.019	-29.01
909.198	38.57
909.377	-6.49
909.555	-121.17
909.734	30.38
909.912	-47.44
910.09	87.72
910.269	26.28
910.447	7.85
910.626	13.99
910.804	-63.83
910.983	13.99
911.161	-147.8
911.339	-6.49
911.518	77.48
911.696	104.11
911.875	-39.25
912.053	-112.98
912.231	-94.55
912.41	42.67
912.588	-18.77
912.766	-119.12
912.944	20.14
913.123	67.24
913.301	-88.4
913.479	1.71
913.657	57
913.836	28.33
914.014	-6.49
914.192	32.43
914.37	28.33
914.548	102.06
914.727	-51.54
914.905	1.71
915.083	-90.45
915.261	-39.25
915.439	32.43
915.617	50.86
915.795	-57.68
915.973	-8.53
916.151	-59.73
916.329	-67.92
916.508	-0.34
916.686	-22.87
916.864	5.8
917.042	65.19
917.22	-72.02
917.398	-49.49
917.575	-39.25
917.753	-10.58
917.931	-45.4
918.109	-16.73
918.287	-0.34
918.465	52.91
918.643	-98.64
918.821	-2.39
918.999	-84.31
919.177	38.57
919.354	-123.22
919.532	-45.4
919.71	48.81
919.888	81.58
920.066	-117.08
920.243	16.04
920.421	20.14
920.599	100.01
920.777	-10.58
920.954	-22.87
921.132	5.8
921.31	20.14
921.488	-43.35
921.665	13.99
921.843	57
922.021	-24.92
922.198	61.1
922.376	-74.07
922.553	44.71
922.731	85.67
922.909	-119.12
923.086	-41.3
923.264	20.14
923.441	-6.49
923.619	-147.8
923.796	77.48
923.974	-45.4
924.152	-80.21
924.329	-12.63
924.507	18.09
924.684	-41.3
924.861	-45.4
925.039	63.15
925.216	7.85
925.394	-59.73
925.571	-26.96
925.749	-47.44
925.926	-29.01
926.103	-117.08
926.281	-39.25
926.458	-37.2
926.635	89.77
926.813	61.1
926.99	67.24
927.167	-16.73
927.345	-18.77
927.522	-127.32
927.699	50.86
927.876	18.09
928.054	69.29
928.231	28.33
928.408	97.96
928.585	5.8
928.763	-12.63
928.94	-80.21
929.117	-41.3
929.294	-16.73
929.471	24.23
929.648	-45.4
929.825	-39.25
930.003	30.38
930.18	-61.78
930.357	16.04
930.534	-45.4
930.711	89.77
930.888	32.43
931.065	40.62
931.242	-14.68
931.419	-29.01
931.596	36.52
931.773	52.91
931.95	3.75
932.127	7.85
932.304	-43.35
932.481	-6.49
932.658	28.33
932.835	-59.73
933.011	48.81
933.188	-6.49
933.365	34.47
933.542	16.04
933.719	-63.83
933.896	9.9
934.073	63.15
934.249	-22.87
934.426	30.38
934.603	3.75
934.78	48.81
934.957	-14.68
935.133	7.85
935.31	-94.55
935.487	-24.92
935.664	-76.12
935.84	-76.12
936.017	-53.59
936.194	3.75
936.37	-31.06
936.547	-33.11
936.724	48.81
936.9	-55.64
937.077	-29.01
937.253	73.39
937.43	3.75
937.607	38.57
937.783	26.28
937.96	-80.21
938.136	9.9
938.313	-18.77
938.489	1.71
938.666	13.99
938.842	-33.11
939.019	-2.39
939.195	34.47
939.372	95.91
939.548	20.14
939.725	-39.25
939.901	-8.53
940.077	-39.25
940.254	83.63
940.43	-129.36
940.607	30.38
940.783	-16.73
940.959	118.44
941.136	9.9
941.312	87.72
941.488	46.76
941.665	-102.74
941.841	-4.44
942.017	-133.46
942.193	36.52
942.37	40.62
942.546	-41.3
942.722	-125.27
942.898	100.01
943.074	108.2
943.251	-8.53
943.427	-20.82
943.603	-47.44
943.779	-22.87
943.955	3.75
944.131	-53.59
944.308	-63.83
944.484	-84.31
944.66	-0.34
944.836	11.95
945.012	134.82
945.188	38.57
945.364	34.47
945.54	-76.12
945.716	52.91
945.892	52.91
946.068	-26.96
946.244	44.71
946.42	-22.87
946.596	-86.36
946.772	-24.92
946.948	16.04
947.124	-90.45
947.3	7.85
947.475	-53.59
947.651	5.8
947.827	-39.25
948.003	48.81
948.179	-72.02
948.355	-61.78
948.531	11.95
948.706	-31.06
948.882	48.81
949.058	38.57
949.234	-22.87
949.409	3.75
949.585	138.92
949.761	50.86
949.937	-37.2
950.112	1.71
950.288	-76.12
950.464	-10.58
950.639	-4.44
950.815	100.01
950.991	13.99
951.166	5.8
951.342	3.75
951.518	13.99
951.693	93.87
951.869	-8.53
952.044	-37.2
952.22	63.15
952.395	-51.54
952.571	-55.64
952.747	-57.68
952.922	-16.73
953.098	-119.12
953.273	-4.44
953.448	-16.73
953.624	7.85
953.799	61.1
953.975	40.62
954.15	5.8
954.326	-88.4
954.501	114.34
954.676	16.04
954.852	-14.68
955.027	-59.73
955.203	-115.03
955.378	-43.35
955.553	57
955.729	-39.25
955.904	-18.77
956.079	126.63
956.254	-76.12
956.43	-90.45
956.605	-29.01
956.78	-41.3
956.955	5.8
957.131	65.19
957.306	48.81
957.481	-8.53
957.656	-94.55
957.831	9.9
958.007	124.58
958.182	-100.69
958.357	-26.96
958.532	-2.39
958.707	-35.16
958.882	-112.98
959.057	40.62
959.232	-74.07
959.407	13.99
959.582	-29.01
959.757	-35.16
959.932	-47.44
960.107	-67.92
960.282	28.33
960.457	-33.11
960.632	-82.26
960.807	-49.49
960.982	20.14
961.157	-12.63
961.332	-29.01
961.507	7.85
961.682	-18.77
961.857	-67.92
962.032	-39.25
962.206	-43.35
962.381	11.95
962.556	-82.26
962.731	-63.83
962.906	112.3
963.081	61.1
963.255	13.99
963.43	9.9
963.605	-26.96
963.78	-20.82
963.954	-8.53
964.129	-26.96
964.304	-12.63
964.479	-14.68
964.653	-20.82
964.828	-102.74
965.003	38.57
965.177	-92.5
965.352	13.99
965.526	30.38
965.701	-14.68
965.876	28.33
966.05	-26.96
966.225	44.71
966.399	-125.27
966.574	-67.92
966.748	46.76
966.923	-45.4
967.098	40.62
967.272	-45.4
967.446	-72.02
967.621	-76.12
967.795	91.82
967.97	-90.45
968.144	61.1
968.319	-22.87
968.493	52.91
968.668	-33.11
968.842	102.06
969.016	-53.59
969.191	30.38
969.365	-61.78
969.539	11.95
969.714	67.24
969.888	-4.44
970.062	-78.16
970.237	-4.44
970.411	22.19
970.585	20.14
970.759	-26.96
970.934	-18.77
971.108	38.57
971.282	79.53
971.456	1.71
971.63	3.75
971.805	16.04
971.979	-55.64
972.153	-45.4
972.327	-33.11
972.501	-57.68
972.675	5.8
972.849	44.71
973.024	-47.44
973.198	26.28
973.372	89.77
973.546	-24.92
973.72	30.38
973.894	-80.21
974.068	-35.16
974.242	7.85
974.416	-18.77
974.59	-4.44
974.764	38.57
974.938	-24.92
975.112	40.62
975.286	-8.53
975.46	-55.64
975.633	20.14
975.807	52.91
975.981	-43.35
976.155	-2.39
976.329	59.05
976.503	54.95
976.677	-108.88
976.85	9.9
977.024	-6.49
977.198	-29.01
977.372	-8.53
977.546	-43.35
977.719	-22.87
977.893	52.91
978.067	34.47
978.241	-67.92
978.414	-2.39
978.588	-90.45
978.762	-76.12
978.935	7.85
979.109	138.92
979.283	177.83
979.456	57
979.63	-51.54
979.804	-110.93
979.977	-53.59
980.151	-4.44
980.324	13.99
980.498	-35.16
980.671	-16.73
980.845	-2.39
981.018	-35.16
981.192	-49.49
981.365	13.99
981.539	5.8
981.712	118.44
981.886	-61.78
982.059	-33.11
982.233	30.38
982.406	-10.58
982.58	-57.68
982.753	83.63
982.926	-4.44
983.1	-47.44
983.273	75.43
983.446	-24.92
983.62	-45.4
983.793	-76.12
983.966	-55.64
984.14	-20.82
984.313	-76.12
984.486	1.71
984.66	-61.78
984.833	18.09
985.006	-20.82
985.179	44.71
985.352	-39.25
985.526	-26.96
985.699	-57.68
985.872	-45.4
986.045	71.34
986.218	5.8
986.391	71.34
986.565	-4.44
986.738	52.91
986.911	-65.88
987.084	-2.39
987.257	-65.88
987.43	-33.11
987.603	-20.82
987.776	-88.4
987.949	-47.44
988.122	34.47
988.295	57
988.468	28.33
988.641	59.05
988.814	-94.55
988.987	-4.44
989.16	42.67
989.333	9.9
989.506	16.04
989.679	22.19
989.852	-43.35
990.025	30.38
990.197	-39.25
990.37	-8.53
990.543	50.86
990.716	-29.01
990.889	-72.02
991.062	-65.88
991.234	18.09
991.407	89.77
991.58	18.09
991.753	-18.77
991.925	-67.92
992.098	-8.53
992.271	-8.53
992.444	83.63
992.616	5.8
992.789	-24.92
992.962	-106.84
993.134	-41.3
993.307	18.09
993.479	34.47
993.652	11.95
993.825	-6.49
993.997	-16.73
994.17	50.86
994.342	-39.25
994.515	-47.44
994.688	-67.92
994.86	-90.45
995.033	-67.92
995.205	3.75
995.378	57
995.55	38.57
995.723	-8.53
995.895	7.85
996.067	-100.69
996.24	18.09
996.412	-63.83
996.585	-26.96
996.757	24.23
996.929	108.2
997.102	1.71
997.274	-2.39
997.447	-6.49
997.619	81.58
997.791	7.85
997.964	-24.92
998.136	-8.53
998.308	1.71
998.48	3.75
998.653	16.04
998.825	-24.92
998.997	40.62
999.169	-55.64
999.342	-74.07
999.514	87.72
999.686	77.48
999.858	-45.4
1000.03	-37.2
1000.202	30.38
1000.374	28.33
1000.547	-24.92
1000.719	-57.68
1000.891	-90.45
1001.063	-20.82
1001.235	-43.35
1001.407	-102.74
1001.579	36.52
1001.751	-12.63
1001.923	-22.87
1002.095	-8.53
1002.267	100.01
1002.439	81.58
1002.611	-41.3
1002.783	3.75
1002.955	48.81
1003.127	16.04
1003.299	-22.87
1003.471	-6.49
1003.643	-59.73
1003.815	1.71
1003.986	-86.36
1004.158	-47.44
1004.33	-61.78
1004.502	-41.3
1004.674	-37.2
1004.846	-45.4
1005.017	-82.26
1005.189	1.71
1005.361	1.71
1005.533	-96.6
1005.704	32.43
1005.876	-69.97
1006.048	-8.53
1006.22	48.81
1006.391	-90.45
1006.563	44.71
1006.735	79.53
1006.906	24.23
1007.078	-90.45
1007.25	1.71
1007.421	65.19
1007.593	-14.68
1007.764	30.38
1007.936	30.38
1008.108	69.29
1008.279	-67.92
1008.451	18.09
1008.622	-26.96
1008.794	-37.2
1008.965	57
1009.137	-63.83
1009.308	122.54
1009.48	-16.73
1009.651	-33.11
1009.823	-76.12
1009.994	28.33
1010.165	-74.07
1010.337	3.75
1010.508	7.85
1010.68	-84.31
1010.851	-35.16
1011.022	-0.34
1011.194	-129.36
1011.365	-18.77
1011.536	-47.44
1011.708	120.49
1011.879	-76.12
1012.05	57
1012.222	-84.31
1012.393	-45.4
1012.564	-33.11
1012.735	11.95
1012.906	-90.45
1013.078	32.43
1013.249	1.71
1013.42	36.52
1013.591	3.75
1013.762	-53.59
1013.934	-6.49
1014.105	50.86
1014.276	32.43
1014.447	-135.51
1014.618	-16.73
1014.789	-88.4
1014.96	-57.68
1015.131	-12.63
1015.302	13.99
1015.473	40.62
1015.644	-82.26
1015.815	-37.2
1015.986	-106.84
1016.157	48.81
1016.328	-39.25
1016.499	93.87
1016.67	-39.25
1016.841	5.8
1017.012	-47.44
1017.183	32.43
1017.354	24.23
1017.525	63.15
1017.696	11.95
1017.867	-12.63
1018.037	24.23
1018.208	-92.5
1018.379	-72.02
1018.55	-35.16
1018.721	-4.44
1018.891	-49.49
1019.062	-57.68
1019.233	-88.4
1019.404	-26.96
1019.574	-78.16
1019.745	-0.34
1019.916	-59.73
1020.087	-22.87
1020.257	-88.4
1020.428	-80.21
1020.599	67.24
1020.769	-57.68
1020.94	9.9
1021.11	-65.88
1021.281	81.58
1021.452	-18.77
1021.622	-2.39
1021.793	20.14
1021.963	5.8
1022.134	-80.21
1022.305	-59.73
1022.475	-69.97
1022.646	-31.06
1022.816	-51.54
1022.987	30.38
1023.157	81.58
1023.327	57
1023.498	-47.44
1023.668	-37.2
1023.839	-22.87
1024.009	-14.68
1024.18	-57.68
1024.35	-16.73
1024.52	40.62
1024.691	-65.88
1024.861	-102.74
1025.031	34.47
1025.202	26.28
1025.372	-74.07
1025.542	11.95
1025.713	7.85
1025.883	40.62
1026.053	48.81
1026.223	-0.34
1026.394	-35.16
1026.564	34.47
1026.734	-63.83
1026.904	-86.36
1027.074	7.85
1027.245	97.96
1027.415	-2.39
1027.585	13.99
1027.755	5.8
1027.925	-98.64
1028.095	22.19
1028.265	-37.2
1028.435	59.05
1028.606	34.47
1028.776	65.19
1028.946	-51.54
1029.116	-31.06
1029.286	89.77
1029.456	-18.77
1029.626	-10.58
1029.796	16.04
1029.966	-82.26
1030.136	-65.88
1030.306	32.43
1030.475	-80.21
1030.645	87.72
1030.815	-16.73
1030.985	73.39
1031.155	-31.06
1031.325	-29.01
1031.495	-76.12
1031.665	-18.77
1031.835	9.9
1032.004	-4.44
1032.174	1.71
1032.344	-26.96
1032.514	-37.2
1032.684	44.71
1032.853	-26.96
1033.023	9.9
1033.193	1.71
1033.362	-76.12
1033.532	9.9
1033.702	1.71
1033.872	24.23
1034.041	7.85
1034.211	-74.07
1034.381	100.01
1034.55	16.04
1034.72	-22.87
1034.889	13.99
1035.059	-2.39
1035.229	-2.39
1035.398	22.19
1035.568	-33.11
1035.737	11.95
1035.907	-18.77
1036.076	-55.64
1036.246	-16.73
1036.415	11.95
1036.585	54.95
1036.754	-14.68
1036.924	73.39
1037.093	-26.96
1037.263	-22.87
1037.432	-39.25
1037.601	-47.44
1037.771	-2.39
1037.94	102.06
1038.11	32.43
1038.279	-43.35
1038.448	16.04
1038.618	-2.39
1038.787	-8.53
1038.956	50.86
1039.126	-86.36
1039.295	-18.77
1039.464	59.05
1039.633	36.52
1039.803	-67.92
1039.972	75.43
1040.141	-82.26
1040.31	145.06
1040.479	-41.3
1040.649	-35.16
1040.818	13.99
1040.987	30.38
1041.156	65.19
1041.325	-61.78
1041.494	-43.35
1041.663	-41.3
1041.833	-72.02
1042.002	-59.73
1042.171	-10.58
1042.34	5.8
1042.509	-65.88
1042.678	-65.88
