Data from LSP66_S15_Subt4_17-45-43-309.txt Node
Date: Wed Aug 09 17:45:43 EDT 2023
User: Emmanuel
Spectrometer: USB4A00615
Scans to average: 1
Trigger mode: 1
Integration Time (sec): 5.000000E-3
Electric dark correction enabled: true
Boxcar width: 0
XAxis mode: Wavelengths
Number of Pixels in Spectrum: 3648
>>>>>Begin Spectral Data<<<<<
346.606	-89.09
346.818	-89.09
347.029	-89.09
347.241	138.24
347.452	87.04
347.664	46.08
347.876	-121.85
348.087	78.85
348.299	19.46
348.51	-7.17
348.722	-17.41
348.933	56.32
349.145	-60.42
349.356	11.26
349.568	29.7
349.779	-25.6
349.991	-9.22
350.202	78.85
350.414	-54.27
350.625	-107.52
350.836	23.55
351.048	19.46
351.259	-21.5
351.471	-54.27
351.682	-5.12
351.893	-50.18
352.105	87.04
352.316	-68.61
352.527	-41.98
352.739	-66.56
352.95	37.89
353.161	-31.74
353.372	-23.55
353.584	-3.07
353.795	3.07
354.006	48.13
354.217	54.27
354.429	-23.55
354.64	5.12
354.851	91.13
355.062	17.41
355.274	44.03
355.485	1.02
355.696	-9.22
355.907	70.65
356.118	23.55
356.329	17.41
356.54	5.12
356.752	17.41
356.963	9.22
357.174	-41.98
357.385	-29.7
357.596	9.22
357.807	1.02
358.018	31.74
358.229	60.42
358.44	-15.36
358.651	-29.7
358.862	-27.65
359.073	29.7
359.284	-76.8
359.495	-76.8
359.706	-52.22
359.917	-39.94
360.128	-11.26
360.339	-50.18
360.55	-89.09
360.761	-25.6
360.972	27.65
361.182	-50.18
361.393	5.12
361.604	-1.02
361.815	-44.03
362.026	1.02
362.237	-17.41
362.447	35.84
362.658	19.46
362.869	7.17
363.08	-87.04
363.291	5.12
363.501	64.51
363.712	-17.41
363.923	-29.7
364.134	-89.09
364.344	-146.43
364.555	-58.37
364.766	91.13
364.976	-125.95
365.187	-3.07
365.398	171.01
365.608	48.13
365.819	-27.65
366.03	27.65
366.24	-33.79
366.451	-132.09
366.662	31.74
366.872	-3.07
367.083	80.89
367.293	62.46
367.504	-9.22
367.714	-19.46
367.925	130.05
368.135	-152.57
368.346	33.79
368.557	-117.76
368.767	11.26
368.977	17.41
369.188	72.7
369.398	11.26
369.609	17.41
369.819	-11.26
370.03	-27.65
370.24	-31.74
370.451	41.98
370.661	46.08
370.871	-7.17
371.082	-5.12
371.292	-72.7
371.502	31.74
371.713	44.03
371.923	1.02
372.133	-27.65
372.344	19.46
372.554	-31.74
372.764	-31.74
372.975	46.08
373.185	9.22
373.395	29.7
373.605	-58.37
373.816	66.56
374.026	19.46
374.236	-105.47
374.446	-64.51
374.656	-41.98
374.867	99.33
375.077	-109.57
375.287	27.65
375.497	-11.26
375.707	70.65
375.917	3.07
376.127	68.61
376.338	21.5
376.548	-3.07
376.758	58.37
376.968	-82.94
377.178	-17.41
377.388	-17.41
377.598	89.09
377.808	3.07
378.018	-25.6
378.228	33.79
378.438	-58.37
378.648	-23.55
378.858	-101.37
379.068	15.36
379.278	-1.02
379.488	-23.55
379.698	62.46
379.908	37.89
380.118	-111.61
380.327	-11.26
380.537	-15.36
380.747	-37.89
380.957	60.42
381.167	-1.02
381.377	39.94
381.587	-74.75
381.796	-23.55
382.006	-39.94
382.216	19.46
382.426	-60.42
382.636	35.84
382.845	-15.36
383.055	-19.46
383.265	-54.27
383.475	5.12
383.684	3.07
383.894	-76.8
384.104	35.84
384.313	-27.65
384.523	-13.31
384.733	7.17
384.942	128
385.152	37.89
385.362	-44.03
385.571	-25.6
385.781	-29.7
385.991	25.6
386.2	37.89
386.41	-60.42
386.619	-103.42
386.829	-17.41
387.038	-29.7
387.248	54.27
387.457	46.08
387.667	-15.36
387.876	93.18
388.086	11.26
388.295	-54.27
388.505	-19.46
388.714	101.37
388.924	-31.74
389.133	33.79
389.343	7.17
389.552	-17.41
389.762	-33.79
389.971	-29.7
390.18	-3.07
390.39	33.79
390.599	-74.75
390.808	-111.61
391.018	-54.27
391.227	95.23
391.436	-23.55
391.646	-52.22
391.855	74.75
392.064	11.26
392.274	37.89
392.483	-21.5
392.692	-39.94
392.901	-27.65
393.111	33.79
393.32	9.22
393.529	72.7
393.738	7.17
393.947	-41.98
394.157	-68.61
394.366	-62.46
394.575	54.27
394.784	54.27
394.993	29.7
395.202	15.36
395.411	48.13
395.62	72.7
395.83	60.42
396.039	-13.31
396.248	74.75
396.457	-3.07
396.666	74.75
396.875	144.38
397.084	60.42
397.293	1.02
397.502	80.89
397.711	60.42
397.92	33.79
398.129	-60.42
398.338	-17.41
398.547	-54.27
398.756	37.89
398.965	9.22
399.174	-3.07
399.382	-37.89
399.591	-41.98
399.8	-29.7
400.009	-97.28
400.218	-11.26
400.427	-158.72
400.636	-19.46
400.844	-123.9
401.053	-29.7
401.262	-17.41
401.471	72.7
401.68	23.55
401.888	35.84
402.097	27.65
402.306	-109.57
402.515	-19.46
402.723	-21.5
402.932	-11.26
403.141	7.17
403.35	35.84
403.558	82.94
403.767	-54.27
403.976	7.17
404.184	35.84
404.393	23.55
404.602	-72.7
404.81	9.22
405.019	13.31
405.227	-21.5
405.436	31.74
405.645	13.31
405.853	15.36
406.062	25.6
406.27	-15.36
406.479	1.02
406.687	-3.07
406.896	-41.98
407.104	-31.74
407.313	82.94
407.521	33.79
407.73	-37.89
407.938	82.94
408.147	66.56
408.355	-58.37
408.563	52.22
408.772	13.31
408.98	-68.61
409.189	50.18
409.397	-64.51
409.605	-62.46
409.814	31.74
410.022	46.08
410.23	-44.03
410.439	37.89
410.647	-111.61
410.855	21.5
411.064	-66.56
411.272	-54.27
411.48	1.02
411.688	-35.84
411.897	-25.6
412.105	-46.08
412.313	-11.26
412.521	56.32
412.73	82.94
412.938	66.56
413.146	-95.23
413.354	76.8
413.562	27.65
413.77	-27.65
413.979	-58.37
414.187	-23.55
414.395	-29.7
414.603	-3.07
414.811	46.08
415.019	-23.55
415.227	44.03
415.435	25.6
415.643	35.84
415.851	37.89
416.059	-17.41
416.267	-105.47
416.475	15.36
416.683	72.7
416.891	19.46
417.099	33.79
417.307	21.5
417.515	82.94
417.723	-44.03
417.931	23.55
418.139	15.36
418.347	-3.07
418.555	-111.61
418.763	-19.46
418.971	-37.89
419.179	-21.5
419.386	-1.02
419.594	50.18
419.802	-17.41
420.01	50.18
420.218	19.46
420.426	-101.37
420.633	1.02
420.841	-13.31
421.049	-64.51
421.257	-62.46
421.464	-21.5
421.672	-25.6
421.88	-37.89
422.088	-21.5
422.295	11.26
422.503	7.17
422.711	27.65
422.918	76.8
423.126	-58.37
423.334	25.6
423.541	31.74
423.749	-29.7
423.956	-46.08
424.164	-130.05
424.372	3.07
424.579	-9.22
424.787	-50.18
424.994	-82.94
425.202	25.6
425.409	37.89
425.617	74.75
425.824	-9.22
426.032	-97.28
426.239	5.12
426.447	23.55
426.654	-33.79
426.862	44.03
427.069	48.13
427.277	68.61
427.484	-27.65
427.692	-64.51
427.899	-50.18
428.106	-29.7
428.314	-117.76
428.521	48.13
428.728	74.75
428.936	-82.94
429.143	60.42
429.351	37.89
429.558	-5.12
429.765	41.98
429.972	21.5
430.18	-13.31
430.387	-9.22
430.594	-107.52
430.801	-54.27
431.009	58.37
431.216	11.26
431.423	13.31
431.63	29.7
431.838	-9.22
432.045	3.07
432.252	54.27
432.459	-19.46
432.666	-5.12
432.873	-97.28
433.081	87.04
433.288	11.26
433.495	-50.18
433.702	33.79
433.909	-15.36
434.116	68.61
434.323	109.57
434.53	68.61
434.737	11.26
434.944	56.32
435.151	-91.13
435.358	15.36
435.565	21.5
435.772	-74.75
435.979	9.22
436.186	-76.8
436.393	7.17
436.6	56.32
436.807	-19.46
437.014	-64.51
437.221	-3.07
437.428	39.94
437.635	-52.22
437.841	-5.12
438.048	39.94
438.255	82.94
438.462	-58.37
438.669	-95.23
438.876	29.7
439.082	17.41
439.289	50.18
439.496	19.46
439.703	-48.13
439.91	68.61
440.116	66.56
440.323	-11.26
440.53	35.84
440.737	11.26
440.943	-62.46
441.15	46.08
441.357	56.32
441.563	-27.65
441.77	54.27
441.977	50.18
442.183	80.89
442.39	25.6
442.597	7.17
442.803	-15.36
443.01	-46.08
443.216	37.89
443.423	52.22
443.63	-82.94
443.836	64.51
444.043	-3.07
444.249	27.65
444.456	72.7
444.662	17.41
444.869	99.33
445.075	87.04
445.282	-11.26
445.488	23.55
445.695	23.55
445.901	-68.61
446.107	52.22
446.314	95.23
446.52	46.08
446.727	-70.65
446.933	-5.12
447.139	52.22
447.346	-58.37
447.552	-7.17
447.759	-115.71
447.965	1.02
448.171	-37.89
448.378	-29.7
448.584	-60.42
448.79	80.89
448.996	-23.55
449.203	11.26
449.409	-1.02
449.615	50.18
449.821	-35.84
450.028	9.22
450.234	-15.36
450.44	31.74
450.646	56.32
450.852	23.55
451.059	58.37
451.265	-33.79
451.471	-87.04
451.677	-41.98
451.883	17.41
452.089	117.76
452.295	-121.85
452.502	97.28
452.708	3.07
452.914	48.13
453.12	-39.94
453.326	-60.42
453.532	-134.14
453.738	-37.89
453.944	1.02
454.15	-31.74
454.356	-3.07
454.562	44.03
454.768	74.75
454.974	-15.36
455.18	84.99
455.386	80.89
455.592	-5.12
455.798	-62.46
456.003	-95.23
456.209	39.94
456.415	25.6
456.621	82.94
456.827	5.12
457.033	-7.17
457.239	-48.13
457.444	-5.12
457.65	-35.84
457.856	-23.55
458.062	-107.52
458.268	70.65
458.473	113.66
458.679	-91.13
458.885	-5.12
459.091	-62.46
459.296	-74.75
459.502	11.26
459.708	21.5
459.914	-89.09
460.119	-5.12
460.325	5.12
460.531	9.22
460.736	13.31
460.942	-23.55
461.147	-3.07
461.353	91.13
461.559	87.04
461.764	-25.6
461.97	-19.46
462.175	-15.36
462.381	9.22
462.587	37.89
462.792	66.56
462.998	29.7
463.203	-39.94
463.409	7.17
463.614	7.17
463.82	-1.02
464.025	-27.65
464.231	-37.89
464.436	-37.89
464.641	113.66
464.847	58.37
465.052	-31.74
465.258	-27.65
465.463	-35.84
465.669	41.98
465.874	-62.46
466.079	58.37
466.285	19.46
466.49	-9.22
466.695	-68.61
466.901	21.5
467.106	35.84
467.311	-56.32
467.516	7.17
467.722	-136.19
467.927	-29.7
468.132	72.7
468.338	-37.89
468.543	-105.47
468.748	17.41
468.953	-99.33
469.158	-31.74
469.364	35.84
469.569	-54.27
469.774	-64.51
469.979	-23.55
470.184	-46.08
470.389	1.02
470.594	-19.46
470.8	-41.98
471.005	-84.99
471.21	13.31
471.415	7.17
471.62	9.22
471.825	50.18
472.03	-13.31
472.235	21.5
472.44	35.84
472.645	44.03
472.85	35.84
473.055	9.22
473.26	54.27
473.465	33.79
473.67	93.18
473.875	-74.75
474.08	27.65
474.285	-52.22
474.49	-66.56
474.695	9.22
474.899	-1.02
475.104	39.94
475.309	-78.85
475.514	-15.36
475.719	54.27
475.924	230.4
476.128	-7.17
476.333	-44.03
476.538	3.07
476.743	-64.51
476.948	27.65
477.152	-76.8
477.357	74.75
477.562	62.46
477.767	101.37
477.971	9.22
478.176	27.65
478.381	48.13
478.585	-29.7
478.79	-66.56
478.995	25.6
479.199	-1.02
479.404	113.66
479.609	46.08
479.813	-37.89
480.018	-31.74
480.223	-15.36
480.427	-33.79
480.632	-19.46
480.836	93.18
481.041	-5.12
481.245	-11.26
481.45	-3.07
481.654	15.36
481.859	-1.02
482.063	39.94
482.268	7.17
482.472	-13.31
482.677	-64.51
482.881	-23.55
483.086	70.65
483.29	78.85
483.495	-35.84
483.699	-25.6
483.903	-15.36
484.108	-17.41
484.312	-19.46
484.517	-78.85
484.721	29.7
484.925	3.07
485.13	-7.17
485.334	1.02
485.538	25.6
485.743	64.51
485.947	27.65
486.151	101.37
486.355	46.08
486.56	-35.84
486.764	-15.36
486.968	-35.84
487.172	-64.51
487.377	39.94
487.581	-74.75
487.785	-5.12
487.989	74.75
488.193	60.42
488.397	7.17
488.602	-101.37
488.806	62.46
489.01	-37.89
489.214	46.08
489.418	-27.65
489.622	48.13
489.826	15.36
490.03	105.47
490.234	-37.89
490.438	-19.46
490.642	44.03
490.846	-27.65
491.05	31.74
491.254	1.02
491.458	50.18
491.662	62.46
491.866	23.55
492.07	33.79
492.274	-7.17
492.478	50.18
492.682	23.55
492.886	29.7
493.09	-128
493.294	-48.13
493.498	109.57
493.701	54.27
493.905	-13.31
494.109	-123.9
494.313	-60.42
494.517	7.17
494.721	19.46
494.924	37.89
495.128	29.7
495.332	9.22
495.536	-103.42
495.739	-29.7
495.943	15.36
496.147	54.27
496.351	48.13
496.554	-95.23
496.758	56.32
496.962	-17.41
497.165	-7.17
497.369	25.6
497.573	33.79
497.776	7.17
497.98	-80.89
498.184	117.76
498.387	-84.99
498.591	54.27
498.794	27.65
498.998	-5.12
499.202	9.22
499.405	48.13
499.609	-56.32
499.812	-13.31
500.016	-7.17
500.219	3.07
500.423	37.89
500.626	23.55
500.83	-39.94
501.033	164.86
501.237	-41.98
501.44	148.48
501.643	52.22
501.847	-48.13
502.05	72.7
502.254	-21.5
502.457	19.46
502.66	-25.6
502.864	-19.46
503.067	-13.31
503.271	-35.84
503.474	-7.17
503.677	-9.22
503.88	39.94
504.084	-56.32
504.287	-27.65
504.49	-39.94
504.694	-9.22
504.897	35.84
505.1	-17.41
505.303	-48.13
505.507	-48.13
505.71	-80.89
505.913	11.26
506.116	-89.09
506.319	-15.36
506.522	82.94
506.726	-48.13
506.929	74.75
507.132	-52.22
507.335	44.03
507.538	-48.13
507.741	103.42
507.944	5.12
508.147	87.04
508.35	-31.74
508.553	103.42
508.756	-5.12
508.959	-5.12
509.163	-37.89
509.366	15.36
509.569	-80.89
509.771	-89.09
509.974	37.89
510.177	35.84
510.38	-1.02
510.583	173.05
510.786	35.84
510.989	15.36
511.192	-27.65
511.395	-7.17
511.598	11.26
511.801	48.13
512.004	-13.31
512.206	78.85
512.409	-17.41
512.612	-48.13
512.815	-56.32
513.018	19.46
513.22	-44.03
513.423	-44.03
513.626	11.26
513.829	5.12
514.032	3.07
514.234	31.74
514.437	-7.17
514.64	-11.26
514.842	-54.27
515.045	132.09
515.248	9.22
515.45	-29.7
515.653	58.37
515.856	-35.84
516.058	78.85
516.261	-68.61
516.464	-1.02
516.666	3.07
516.869	23.55
517.071	-62.46
517.274	-58.37
517.477	74.75
517.679	-33.79
517.882	-1.02
518.084	31.74
518.287	-58.37
518.489	56.32
518.692	-17.41
518.894	44.03
519.097	-68.61
519.299	9.22
519.501	91.13
519.704	52.22
519.906	-84.99
520.109	-41.98
520.311	62.46
520.514	103.42
520.716	91.13
520.918	9.22
521.121	29.7
521.323	25.6
521.525	-70.65
521.728	-21.5
521.93	-17.41
522.132	33.79
522.335	-25.6
522.537	35.84
522.739	25.6
522.941	37.89
523.144	21.5
523.346	-66.56
523.548	13.31
523.75	74.75
523.952	7.17
524.155	60.42
524.357	-11.26
524.559	82.94
524.761	29.7
524.963	-17.41
525.165	-7.17
525.368	-70.65
525.57	-19.46
525.772	41.98
525.974	-37.89
526.176	-70.65
526.378	46.08
526.58	-29.7
526.782	80.89
526.984	41.98
527.186	-31.74
527.388	-132.09
527.59	-60.42
527.792	-72.7
527.994	-31.74
528.196	115.71
528.398	11.26
528.6	25.6
528.802	3.07
529.004	80.89
529.206	-76.8
529.408	97.28
529.609	41.98
529.811	44.03
530.013	82.94
530.215	76.8
530.417	52.22
530.619	-68.61
530.821	15.36
531.022	29.7
531.224	-29.7
531.426	21.5
531.628	7.17
531.829	-35.84
532.031	-130.05
532.233	-5.12
532.435	15.36
532.636	-70.65
532.838	23.55
533.04	-48.13
533.241	-5.12
533.443	7.17
533.645	-50.18
533.846	17.41
534.048	64.51
534.25	37.89
534.451	3.07
534.653	-89.09
534.855	-134.14
535.056	-33.79
535.258	-25.6
535.459	-48.13
535.661	17.41
535.862	31.74
536.064	-23.55
536.265	-1.02
536.467	-33.79
536.668	-25.6
536.87	-95.23
537.071	25.6
537.273	-33.79
537.474	58.37
537.676	-25.6
537.877	-27.65
538.078	-7.17
538.28	46.08
538.481	44.03
538.683	-25.6
538.884	-25.6
539.085	9.22
539.287	-5.12
539.488	35.84
539.689	84.99
539.891	-11.26
540.092	62.46
540.293	52.22
540.495	101.37
540.696	31.74
540.897	-44.03
541.098	-1.02
541.3	-11.26
541.501	-23.55
541.702	25.6
541.903	35.84
542.104	60.42
542.306	21.5
542.507	-21.5
542.708	-37.89
542.909	33.79
543.11	41.98
543.311	9.22
543.512	-46.08
543.713	74.75
543.915	-29.7
544.116	-17.41
544.317	1.02
544.518	166.91
544.719	-56.32
544.92	-78.85
545.121	21.5
545.322	39.94
545.523	99.33
545.724	17.41
545.925	37.89
546.126	33.79
546.327	84.99
546.528	5.12
546.729	-70.65
546.929	17.41
547.13	-91.13
547.331	-19.46
547.532	50.18
547.733	39.94
547.934	-46.08
548.135	46.08
548.336	7.17
548.536	3.07
548.737	-31.74
548.938	46.08
549.139	-27.65
549.34	111.61
549.54	-15.36
549.741	-82.94
549.942	-50.18
550.143	-87.04
550.343	39.94
550.544	89.09
550.745	25.6
550.945	80.89
551.146	-23.55
551.347	-91.13
551.547	11.26
551.748	-33.79
551.949	97.28
552.149	33.79
552.35	-7.17
552.551	58.37
552.751	1.02
552.952	-27.65
553.152	-27.65
553.353	52.22
553.553	21.5
553.754	17.41
553.954	-25.6
554.155	-113.66
554.356	-70.65
554.556	52.22
554.756	-175.1
554.957	87.04
555.157	31.74
555.358	113.66
555.558	-95.23
555.759	62.46
555.959	-7.17
556.159	7.17
556.36	-3.07
556.56	87.04
556.761	-27.65
556.961	-52.22
557.161	-3.07
557.362	41.98
557.562	21.5
557.762	15.36
557.963	31.74
558.163	89.09
558.363	-50.18
558.563	101.37
558.764	-11.26
558.964	62.46
559.164	66.56
559.364	29.7
559.565	89.09
559.765	-89.09
559.965	5.12
560.165	84.99
560.365	146.43
560.565	52.22
560.766	-7.17
560.966	23.55
561.166	-46.08
561.366	-11.26
561.566	72.7
561.766	-150.53
561.966	-44.03
562.166	58.37
562.366	54.27
562.566	35.84
562.766	-5.12
562.966	21.5
563.166	-93.18
563.366	-50.18
563.566	-25.6
563.766	-13.31
563.966	48.13
564.166	-54.27
564.366	72.7
564.566	46.08
564.766	76.8
564.966	76.8
565.166	-105.47
565.366	-19.46
565.565	66.56
565.765	-21.5
565.965	-41.98
566.165	19.46
566.365	-31.74
566.565	-5.12
566.764	93.18
566.964	-62.46
567.164	33.79
567.364	-15.36
567.564	-60.42
567.763	-54.27
567.963	-5.12
568.163	64.51
568.362	54.27
568.562	54.27
568.762	-13.31
568.961	44.03
569.161	-29.7
569.361	-19.46
569.56	5.12
569.76	25.6
569.96	17.41
570.159	-11.26
570.359	-95.23
570.558	-7.17
570.758	62.46
570.958	-37.89
571.157	33.79
571.357	-13.31
571.556	-37.89
571.756	-29.7
571.955	-25.6
572.155	89.09
572.354	82.94
572.554	27.65
572.753	-11.26
572.953	-89.09
573.152	62.46
573.351	60.42
573.551	-25.6
573.75	60.42
573.95	64.51
574.149	11.26
574.348	-41.98
574.548	50.18
574.747	-17.41
574.946	-35.84
575.146	5.12
575.345	46.08
575.544	7.17
575.744	-54.27
575.943	66.56
576.142	109.57
576.342	29.7
576.541	-1.02
576.74	5.12
576.939	-41.98
577.138	-23.55
577.338	82.94
577.537	-50.18
577.736	-72.7
577.935	-3.07
578.134	-17.41
578.333	-72.7
578.533	-15.36
578.732	19.46
578.931	91.13
579.13	-37.89
579.329	-25.6
579.528	-7.17
579.727	99.33
579.926	11.26
580.125	93.18
580.324	72.7
580.523	15.36
580.722	7.17
580.921	21.5
581.12	-23.55
581.319	46.08
581.518	89.09
581.717	13.31
581.916	-3.07
582.115	-103.42
582.314	-84.99
582.513	-21.5
582.712	99.33
582.911	-17.41
583.109	-25.6
583.308	74.75
583.507	39.94
583.706	-52.22
583.905	48.13
584.104	-46.08
584.302	-13.31
584.501	3.07
584.7	-58.37
584.899	109.57
585.098	-58.37
585.296	-154.62
585.495	58.37
585.694	23.55
585.892	-80.89
586.091	-46.08
586.29	62.46
586.488	-29.7
586.687	-31.74
586.886	-68.61
587.084	-17.41
587.283	23.55
587.482	-109.57
587.68	162.81
587.879	44.03
588.077	29.7
588.276	11.26
588.475	13.31
588.673	-52.22
588.872	-39.94
589.07	87.04
589.269	-3.07
589.467	19.46
589.666	66.56
589.864	-78.85
590.063	21.5
590.261	21.5
590.46	35.84
590.658	-41.98
590.857	-56.32
591.055	-17.41
591.253	68.61
591.452	-103.42
591.65	-44.03
591.848	-58.37
592.047	33.79
592.245	103.42
592.444	3.07
592.642	17.41
592.84	-25.6
593.038	-107.52
593.237	74.75
593.435	-7.17
593.633	37.89
593.832	-56.32
594.03	17.41
594.228	-64.51
594.426	-66.56
594.624	41.98
594.823	-58.37
595.021	19.46
595.219	29.7
595.417	101.37
595.615	-13.31
595.813	37.89
596.012	-64.51
596.21	-37.89
596.408	66.56
596.606	-25.6
596.804	11.26
597.002	19.46
597.2	-39.94
597.398	-31.74
597.596	33.79
597.794	84.99
597.992	50.18
598.19	-21.5
598.388	5.12
598.586	-48.13
598.784	31.74
598.982	-50.18
599.18	44.03
599.378	13.31
599.576	58.37
599.774	35.84
599.972	140.29
600.17	39.94
600.368	-66.56
600.565	130.05
600.763	29.7
600.961	-91.13
601.159	-68.61
601.357	109.57
601.555	101.37
601.752	9.22
601.95	107.52
602.148	31.74
602.346	-5.12
602.544	39.94
602.741	15.36
602.939	-11.26
603.137	11.26
603.334	68.61
603.532	17.41
603.73	-35.84
603.927	-23.55
604.125	-78.85
604.323	-48.13
604.52	113.66
604.718	87.04
604.916	54.27
605.113	25.6
605.311	-21.5
605.508	-46.08
605.706	-21.5
605.904	156.67
606.101	52.22
606.299	74.75
606.496	-3.07
606.694	5.12
606.891	-44.03
607.089	-41.98
607.286	89.09
607.484	62.46
607.681	-13.31
607.879	23.55
608.076	25.6
608.273	58.37
608.471	-31.74
608.668	19.46
608.866	50.18
609.063	-25.6
609.26	13.31
609.458	80.89
609.655	17.41
609.852	-74.75
610.05	-56.32
610.247	-68.61
610.444	54.27
610.642	-82.94
610.839	64.51
611.036	-91.13
611.233	-107.52
611.431	-1.02
611.628	-117.76
611.825	54.27
612.022	-25.6
612.22	-95.23
612.417	-9.22
612.614	66.56
612.811	29.7
613.008	84.99
613.205	-5.12
613.402	37.89
613.6	9.22
613.797	15.36
613.994	-46.08
614.191	-50.18
614.388	-5.12
614.585	11.26
614.782	-39.94
614.979	37.89
615.176	48.13
615.373	-3.07
615.57	78.85
615.767	50.18
615.964	11.26
616.161	-15.36
616.358	-44.03
616.555	-66.56
616.752	60.42
616.949	-50.18
617.146	-37.89
617.343	44.03
617.539	52.22
617.736	41.98
617.933	-37.89
618.13	-25.6
618.327	27.65
618.524	-11.26
618.721	58.37
618.917	19.46
619.114	33.79
619.311	17.41
619.508	-113.66
619.704	11.26
619.901	29.7
620.098	-37.89
620.295	11.26
620.491	9.22
620.688	-109.57
620.885	-33.79
621.081	41.98
621.278	68.61
621.475	44.03
621.671	93.18
621.868	31.74
622.065	62.46
622.261	23.55
622.458	117.76
622.655	76.8
622.851	-17.41
623.048	-15.36
623.244	-11.26
623.441	21.5
623.637	150.53
623.834	87.04
624.03	29.7
624.227	60.42
624.423	68.61
624.62	37.89
624.816	3.07
625.013	17.41
625.209	-19.46
625.406	50.18
625.602	-27.65
625.798	23.55
625.995	84.99
626.191	-13.31
626.388	46.08
626.584	-89.09
626.78	121.85
626.977	-44.03
627.173	29.7
627.369	-54.27
627.566	-50.18
627.762	-66.56
627.958	-44.03
628.154	-78.85
628.351	70.65
628.547	-13.31
628.743	15.36
628.939	78.85
629.136	-56.32
629.332	1.02
629.528	58.37
629.724	-107.52
629.92	3.07
630.116	19.46
630.313	-9.22
630.509	-54.27
630.705	146.43
630.901	-101.37
631.097	134.14
631.293	54.27
631.489	23.55
631.685	82.94
631.881	-50.18
632.077	25.6
632.273	60.42
632.469	-9.22
632.665	-76.8
632.861	-1.02
633.057	-31.74
633.253	-17.41
633.449	-3.07
633.645	52.22
633.841	50.18
634.037	48.13
634.233	9.22
634.429	-93.18
634.625	1.02
634.821	-50.18
635.017	84.99
635.212	13.31
635.408	-89.09
635.604	60.42
635.8	105.47
635.996	1.02
636.191	-3.07
636.387	3.07
636.583	31.74
636.779	-37.89
636.975	39.94
637.17	-52.22
637.366	103.42
637.562	-48.13
637.757	21.5
637.953	-7.17
638.149	17.41
638.345	-27.65
638.54	-119.81
638.736	91.13
638.931	-27.65
639.127	7.17
639.323	-64.51
639.518	-35.84
639.714	-54.27
639.909	70.65
640.105	27.65
640.301	-1.02
640.496	-39.94
640.692	-33.79
640.887	-33.79
641.083	-35.84
641.278	29.7
641.474	-11.26
641.669	-48.13
641.865	-33.79
642.06	-27.65
642.256	70.65
642.451	-21.5
642.646	-54.27
642.842	21.5
643.037	93.18
643.233	-70.65
643.428	1.02
643.623	19.46
643.819	-29.7
644.014	89.09
644.209	15.36
644.405	84.99
644.6	35.84
644.795	-37.89
644.99	-31.74
645.186	37.89
645.381	-13.31
645.576	25.6
645.771	29.7
645.967	-9.22
646.162	54.27
646.357	-132.09
646.552	56.32
646.747	52.22
646.943	17.41
647.138	17.41
647.333	99.33
647.528	-62.46
647.723	-27.65
647.918	-60.42
648.113	3.07
648.308	33.79
648.504	56.32
648.699	39.94
648.894	52.22
649.089	7.17
649.284	-17.41
649.479	58.37
649.674	25.6
649.869	-7.17
650.064	142.33
650.259	-3.07
650.454	1.02
650.649	19.46
650.844	-33.79
651.038	70.65
651.233	-82.94
651.428	-13.31
651.623	-33.79
651.818	-70.65
652.013	-27.65
652.208	37.89
652.403	-105.47
652.597	91.13
652.792	19.46
652.987	-54.27
653.182	21.5
653.377	-5.12
653.571	91.13
653.766	17.41
653.961	-25.6
654.156	-13.31
654.35	-37.89
654.545	84.99
654.74	41.98
654.935	123.9
655.129	5.12
655.324	9.22
655.519	111.61
655.713	3.07
655.908	-134.14
656.102	-17.41
656.297	-11.26
656.492	21.5
656.686	-64.51
656.881	84.99
657.075	-44.03
657.27	37.89
657.464	-99.33
657.659	95.23
657.854	19.46
658.048	-52.22
658.243	58.37
658.437	70.65
658.631	91.13
658.826	93.18
659.02	68.61
659.215	19.46
659.409	7.17
659.604	-31.74
659.798	-9.22
659.992	-9.22
660.187	179.2
660.381	21.5
660.576	-9.22
660.77	5.12
660.964	17.41
661.159	27.65
661.353	25.6
661.547	-50.18
661.742	101.37
661.936	89.09
662.13	31.74
662.324	31.74
662.519	89.09
662.713	-13.31
662.907	-78.85
663.101	-64.51
663.295	70.65
663.49	-31.74
663.684	3.07
663.878	-19.46
664.072	-7.17
664.266	70.65
664.46	1.02
664.654	-25.6
664.849	7.17
665.043	11.26
665.237	-60.42
665.431	-97.28
665.625	29.7
665.819	33.79
666.013	17.41
666.207	-87.04
666.401	117.76
666.595	60.42
666.789	76.8
666.983	-11.26
667.177	-15.36
667.371	-39.94
667.565	-35.84
667.759	-9.22
667.953	-95.23
668.147	41.98
668.34	-46.08
668.534	-54.27
668.728	66.56
668.922	46.08
669.116	48.13
669.31	-33.79
669.504	-23.55
669.697	5.12
669.891	11.26
670.085	76.8
670.279	99.33
670.473	-46.08
670.666	-37.89
670.86	9.22
671.054	-52.22
671.248	62.46
671.441	-23.55
671.635	-27.65
671.829	-19.46
672.022	5.12
672.216	62.46
672.41	-93.18
672.603	121.85
672.797	60.42
672.99	66.56
673.184	-3.07
673.378	76.8
673.571	-1.02
673.765	64.51
673.958	7.17
674.152	-27.65
674.345	-66.56
674.539	-37.89
674.733	-25.6
674.926	-119.81
675.12	-136.19
675.313	-5.12
675.506	64.51
675.7	11.26
675.893	-50.18
676.087	23.55
676.28	89.09
676.474	-33.79
676.667	-54.27
676.86	-58.37
677.054	-41.98
677.247	33.79
677.441	80.89
677.634	9.22
677.827	25.6
678.02	66.56
678.214	1.02
678.407	95.23
678.6	-7.17
678.794	5.12
678.987	-9.22
679.18	121.85
679.373	-21.5
679.567	44.03
679.76	7.17
679.953	-37.89
680.146	-27.65
680.339	33.79
680.533	-48.13
680.726	11.26
680.919	11.26
681.112	62.46
681.305	13.31
681.498	-7.17
681.691	17.41
681.884	-76.8
682.077	-31.74
682.271	23.55
682.464	54.27
682.657	-46.08
682.85	-33.79
683.043	-25.6
683.236	46.08
683.429	74.75
683.622	52.22
683.815	-31.74
684.008	-23.55
684.201	66.56
684.393	-46.08
684.586	-5.12
684.779	13.31
684.972	-48.13
685.165	46.08
685.358	97.28
685.551	-21.5
685.744	11.26
685.937	35.84
686.129	-48.13
686.322	54.27
686.515	-19.46
686.708	50.18
686.901	17.41
687.093	91.13
687.286	35.84
687.479	-54.27
687.672	-97.28
687.864	-31.74
688.057	-48.13
688.25	31.74
688.442	70.65
688.635	11.26
688.828	48.13
689.02	7.17
689.213	-31.74
689.406	-62.46
689.598	1.02
689.791	25.6
689.984	-74.75
690.176	111.61
690.369	1.02
690.561	7.17
690.754	-5.12
690.946	93.18
691.139	9.22
691.331	13.31
691.524	9.22
691.716	-1.02
691.909	25.6
692.101	25.6
692.294	44.03
692.486	-1.02
692.679	7.17
692.871	-19.46
693.063	74.75
693.256	1.02
693.448	-95.23
693.641	-31.74
693.833	52.22
694.025	-68.61
694.218	66.56
694.41	91.13
694.602	33.79
694.795	84.99
694.987	207.87
695.179	783.35
695.372	558.07
695.564	29.7
695.756	54.27
695.948	-72.7
696.14	48.13
696.333	9.22
696.525	-25.6
696.717	9.22
696.909	82.94
697.101	66.56
697.294	-3.07
697.486	33.79
697.678	-9.22
697.87	97.28
698.062	-144.38
698.254	99.33
698.446	-56.32
698.638	-15.36
698.83	-109.57
699.022	76.8
699.215	-17.41
699.407	31.74
699.599	-89.09
699.791	37.89
699.983	29.7
700.175	91.13
700.367	58.37
700.558	25.6
700.75	-3.07
700.942	9.22
701.134	-46.08
701.326	27.65
701.518	107.52
701.71	29.7
701.902	-62.46
702.094	33.79
702.286	-99.33
702.477	21.5
702.669	29.7
702.861	-50.18
703.053	17.41
703.245	-60.42
703.436	-7.17
703.628	3.07
703.82	1.02
704.012	46.08
704.203	31.74
704.395	-41.98
704.587	-13.31
704.779	7.17
704.97	70.65
705.162	764.92
705.354	1838.05
705.545	140.29
705.737	193.53
705.929	-25.6
706.12	-58.37
706.312	-35.84
706.503	-140.29
706.695	62.46
706.887	27.65
707.078	35.84
707.27	27.65
707.461	74.75
707.653	50.18
707.844	-11.26
708.036	74.75
708.227	23.55
708.419	54.27
708.61	70.65
708.802	-31.74
708.993	23.55
709.185	-35.84
709.376	-41.98
709.567	-1.02
709.759	66.56
709.95	-21.5
710.141	31.74
710.333	21.5
710.524	-23.55
710.716	19.46
710.907	29.7
711.098	72.7
711.289	-13.31
711.481	64.51
711.672	25.6
711.863	-29.7
712.055	115.71
712.246	-72.7
712.437	-11.26
712.628	-7.17
712.82	-62.46
713.011	87.04
713.202	72.7
713.393	72.7
713.584	142.33
713.775	3.07
713.967	35.84
714.158	-9.22
714.349	-41.98
714.54	-39.94
714.731	35.84
714.922	27.65
715.113	-7.17
715.304	35.84
715.495	-89.09
715.686	31.74
715.877	-35.84
716.068	-21.5
716.259	-46.08
716.45	9.22
716.641	-9.22
716.832	13.31
717.023	-101.37
717.214	-56.32
717.405	-74.75
717.596	-5.12
717.787	-9.22
717.978	99.33
718.169	-76.8
718.36	-64.51
718.55	39.94
718.741	33.79
718.932	54.27
719.123	-84.99
719.314	62.46
719.505	17.41
719.695	-54.27
719.886	-37.89
720.077	64.51
720.268	-31.74
720.458	11.26
720.649	13.31
720.84	15.36
721.031	-31.74
721.221	62.46
721.412	-103.42
721.603	3.07
721.793	-41.98
721.984	-76.8
722.175	-56.32
722.365	33.79
722.556	-54.27
722.746	44.03
722.937	9.22
723.128	1.02
723.318	95.23
723.509	33.79
723.699	82.94
723.89	72.7
724.08	-74.75
724.271	-5.12
724.461	-46.08
724.652	35.84
724.842	-58.37
725.033	-70.65
725.223	-54.27
725.414	3.07
725.604	37.89
725.794	-33.79
725.985	54.27
726.175	-52.22
726.366	19.46
726.556	25.6
726.746	-128
726.937	78.85
727.127	25.6
727.317	-132.09
727.508	-11.26
727.698	-27.65
727.888	-82.94
728.079	134.14
728.269	19.46
728.459	21.5
728.649	-11.26
728.84	-15.36
729.03	41.98
729.22	9.22
729.41	-13.31
729.6	58.37
729.791	132.09
729.981	-44.03
730.171	56.32
730.361	23.55
730.551	-9.22
730.741	-103.42
730.931	70.65
731.121	125.95
731.311	-56.32
731.502	-15.36
731.692	1.02
731.882	37.89
732.072	46.08
732.262	64.51
732.452	-37.89
732.642	46.08
732.832	13.31
733.022	-1.02
733.212	41.98
733.402	115.71
733.591	33.79
733.781	19.46
733.971	-74.75
734.161	17.41
734.351	-62.46
734.541	91.13
734.731	-41.98
734.921	-29.7
735.111	-21.5
735.3	-1.02
735.49	-17.41
735.68	-11.26
735.87	31.74
736.06	25.6
736.249	-105.47
736.439	-23.55
736.629	48.13
736.819	1430.51
737.008	4039.62
737.198	3566.54
737.388	1082.35
737.577	150.53
737.767	107.52
737.957	37.89
738.146	89.09
738.336	52.22
738.526	76.8
738.715	9.22
738.905	-68.61
739.094	-37.89
739.284	27.65
739.474	74.75
739.663	95.23
739.853	19.46
740.042	-11.26
740.232	25.6
740.421	-13.31
740.611	-54.27
740.8	-19.46
740.99	19.46
741.179	-27.65
741.369	68.61
741.558	23.55
741.748	140.29
741.937	-107.52
742.126	-3.07
742.316	-1.02
742.505	-46.08
742.695	-35.84
742.884	37.89
743.073	-39.94
743.263	-58.37
743.452	9.22
743.641	9.22
743.831	-13.31
744.02	-115.71
744.209	66.56
744.398	-60.42
744.588	17.41
744.777	-33.79
744.966	33.79
745.155	95.23
745.345	25.6
745.534	5.12
745.723	48.13
745.912	60.42
746.101	-19.46
746.29	56.32
746.48	-46.08
746.669	31.74
746.858	-3.07
747.047	-54.27
747.236	-17.41
747.425	117.76
747.614	23.55
747.803	-17.41
747.992	-46.08
748.181	1.02
748.37	3.07
748.559	-54.27
748.748	-46.08
748.937	265.21
749.126	2024.42
749.315	883.7
749.504	719.86
749.693	650.23
749.882	2431.96
750.071	4752.31
750.26	5245.87
750.449	1764.33
750.638	1563.62
750.826	123.9
751.015	62.46
751.204	-72.7
751.393	11.26
751.582	13.31
751.771	17.41
751.959	78.85
752.148	15.36
752.337	66.56
752.526	-1.02
752.714	-58.37
752.903	17.41
753.092	93.18
753.281	-19.46
753.469	-25.6
753.658	-11.26
753.847	64.51
754.035	82.94
754.224	-58.37
754.413	11.26
754.601	1.02
754.79	-35.84
754.979	29.7
755.167	-48.13
755.356	7.17
755.544	58.37
755.733	15.36
755.921	-41.98
756.11	41.98
756.298	-41.98
756.487	87.04
756.675	64.51
756.864	44.03
757.052	7.17
757.241	-7.17
757.429	-3.07
757.618	-44.03
757.806	-29.7
757.995	89.09
758.183	37.89
758.371	46.08
758.56	-1.02
758.748	44.03
758.937	15.36
759.125	164.86
759.313	84.99
759.502	-3.07
759.69	17.41
759.878	33.79
760.066	-70.65
760.255	25.6
760.443	-72.7
760.631	44.03
760.819	-50.18
761.008	13.31
761.196	15.36
761.384	-7.17
761.572	-105.47
761.761	244.73
761.949	4869.05
762.137	11699.02
762.325	15442.71
762.513	11629.39
762.701	8868.73
762.889	5039.03
763.077	2968.53
763.266	459.77
763.454	193.53
763.642	-33.79
763.83	-52.22
764.018	17.41
764.206	-44.03
764.394	142.33
764.582	56.32
764.77	66.56
764.958	78.85
765.146	-78.85
765.334	25.6
765.522	-7.17
765.71	105.47
765.898	-3.07
766.085	13.31
766.273	-76.8
766.461	-84.99
766.649	-70.65
766.837	-23.55
767.025	84.99
767.213	11.26
767.401	19.46
767.588	-21.5
767.776	23.55
767.964	-25.6
768.152	-25.6
768.339	-3.07
768.527	-31.74
768.715	35.84
768.903	15.36
769.09	66.56
769.278	1.02
769.466	46.08
769.654	-27.65
769.841	-27.65
770.029	78.85
770.217	-78.85
770.404	-3.07
770.592	-80.89
770.779	101.37
770.967	113.66
771.155	1561.58
771.342	2491.35
771.53	562.17
771.717	99.33
771.905	54.27
772.092	21.5
772.28	3.07
772.467	-25.6
772.655	23.55
772.842	-97.28
773.03	91.13
773.217	-35.84
773.405	95.23
773.592	-13.31
773.78	97.28
773.967	-7.17
774.154	25.6
774.342	-21.5
774.529	19.46
774.717	-109.57
774.904	3.07
775.091	5.12
775.279	29.7
775.466	-128
775.653	-54.27
775.841	-60.42
776.028	84.99
776.215	-60.42
776.402	101.37
776.59	-70.65
776.777	9.22
776.964	7.17
777.151	93.18
777.338	-46.08
777.526	-103.42
777.713	-5.12
777.9	-35.84
778.087	-95.23
778.274	19.46
778.461	74.75
778.649	-1.02
778.836	68.61
779.023	146.43
779.21	44.03
779.397	37.89
779.584	-87.04
779.771	-33.79
779.958	-17.41
780.145	84.99
780.332	-48.13
780.519	54.27
780.706	-33.79
780.893	123.9
781.08	-48.13
781.267	35.84
781.454	66.56
781.641	82.94
781.828	-31.74
782.015	46.08
782.202	-15.36
782.388	-19.46
782.575	7.17
782.762	-27.65
782.949	23.55
783.136	1.02
783.323	33.79
783.509	15.36
783.696	21.5
783.883	58.37
784.07	82.94
784.257	107.52
784.443	27.65
784.63	-9.22
784.817	64.51
785.004	-3.07
785.19	-41.98
785.377	-78.85
785.564	9.22
785.75	46.08
785.937	70.65
786.124	66.56
786.31	78.85
786.497	-17.41
786.683	23.55
786.87	5.12
787.057	-11.26
787.243	27.65
787.43	-15.36
787.616	35.84
787.803	5.12
787.989	1.02
788.176	15.36
788.362	-11.26
788.549	-3.07
788.735	-44.03
788.922	-17.41
789.108	80.89
789.295	7.17
789.481	62.46
789.668	31.74
789.854	25.6
790.04	15.36
790.227	103.42
790.413	87.04
790.599	46.08
790.786	-17.41
790.972	78.85
791.158	78.85
791.345	148.48
791.531	-52.22
791.717	-74.75
791.904	-62.46
792.09	-11.26
792.276	93.18
792.462	33.79
792.649	66.56
792.835	-54.27
793.021	27.65
793.207	54.27
793.393	-5.12
793.58	66.56
793.766	951.28
793.952	220.16
794.138	209.92
794.324	-17.41
794.51	-35.84
794.696	80.89
794.882	37.89
795.069	29.7
795.255	5.12
795.441	64.51
795.627	33.79
795.813	-7.17
795.999	1.02
796.185	9.22
796.371	9.22
796.557	-39.94
796.743	97.28
796.929	160.77
797.115	-35.84
797.3	-56.32
797.486	-54.27
797.672	-68.61
797.858	27.65
798.044	-41.98
798.23	7.17
798.416	-7.17
798.602	-60.42
798.788	72.7
798.973	-56.32
799.159	-13.31
799.345	-91.13
799.531	-15.36
799.717	87.04
799.902	-37.89
800.088	19.46
800.274	252.92
800.46	2210.78
800.645	1018.86
800.831	314.36
801.017	68.61
801.202	-13.31
801.388	-68.61
801.574	-11.26
801.759	-23.55
801.945	-35.84
802.131	35.84
802.316	128
802.502	-44.03
802.687	-11.26
802.873	21.5
803.058	-76.8
803.244	-5.12
803.43	-50.18
803.615	-23.55
803.801	-87.04
803.986	11.26
804.172	-87.04
804.357	-76.8
804.543	84.99
804.728	-5.12
804.913	60.42
805.099	-78.85
805.284	-60.42
805.47	93.18
805.655	7.17
805.84	-109.57
806.026	60.42
806.211	-15.36
806.397	33.79
806.582	-50.18
806.767	-93.18
806.953	5.12
807.138	31.74
807.323	-39.94
807.508	31.74
807.694	-74.75
807.879	-48.13
808.064	50.18
808.249	-23.55
808.435	31.74
808.62	15.36
808.805	5.12
808.99	44.03
809.175	70.65
809.361	1944.55
809.546	3115.98
809.731	4418.49
809.916	2943.96
810.101	3611.59
810.286	7302.03
810.471	12743.49
810.656	12630.85
810.841	11164.5
811.026	9974.63
811.211	7601.04
811.396	3513.29
811.581	2143.2
811.766	310.27
811.951	166.91
812.136	154.62
812.321	125.95
812.506	-11.26
812.691	27.65
812.876	-1.02
813.061	25.6
813.246	95.23
813.431	109.57
813.616	166.91
813.801	58.37
813.986	78.85
814.17	-44.03
814.355	1.02
814.54	-60.42
814.725	74.75
814.91	-39.94
815.094	17.41
815.279	27.65
815.464	72.7
815.649	-144.38
815.833	95.23
816.018	-7.17
816.203	29.7
816.388	-82.94
816.572	-17.41
816.757	-60.42
816.942	132.09
817.126	-37.89
817.311	37.89
817.496	-130.05
817.68	56.32
817.865	13.31
818.049	-23.55
818.234	11.26
818.419	-46.08
818.603	11.26
818.788	1.02
818.972	-5.12
819.157	87.04
819.341	-89.09
819.526	39.94
819.71	-21.5
819.895	-109.57
820.079	46.08
820.264	78.85
820.448	9.22
820.633	15.36
820.817	111.61
821.001	48.13
821.186	-17.41
821.37	41.98
821.554	-66.56
821.739	-44.03
821.923	-175.1
822.108	111.61
822.292	3.07
822.476	27.65
822.66	31.74
822.845	-19.46
823.029	-13.31
823.213	21.5
823.398	76.8
823.582	177.15
823.766	72.7
823.95	-91.13
824.134	-27.65
824.319	-23.55
824.503	9.22
824.687	54.27
824.871	93.18
825.055	115.71
825.239	-50.18
825.423	-134.14
825.608	15.36
825.792	-31.74
825.976	13.31
826.16	44.03
826.344	62.46
826.528	-113.66
826.712	50.18
826.896	-3.07
827.08	-15.36
827.264	3.07
827.448	33.79
827.632	7.17
827.816	54.27
828	107.52
828.184	13.31
828.368	41.98
828.552	-21.5
828.736	-37.89
828.919	-7.17
829.103	19.46
829.287	37.89
829.471	66.56
829.655	76.8
829.839	54.27
830.023	15.36
830.206	15.36
830.39	-3.07
830.574	-9.22
830.758	-1.02
830.941	5.12
831.125	5.12
831.309	33.79
831.493	-23.55
831.676	3.07
831.86	-54.27
832.044	58.37
832.227	-15.36
832.411	-31.74
832.595	-7.17
832.778	50.18
832.962	52.22
833.146	37.89
833.329	19.46
833.513	-3.07
833.696	27.65
833.88	78.85
834.064	23.55
834.247	95.23
834.431	-62.46
834.614	25.6
834.798	-84.99
834.981	9.22
835.165	-35.84
835.348	9.22
835.532	76.8
835.715	58.37
835.898	-58.37
836.082	44.03
836.265	-33.79
836.449	19.46
836.632	-35.84
836.815	48.13
836.999	-58.37
837.182	-13.31
837.365	-44.03
837.549	-29.7
837.732	-27.65
837.915	-95.23
838.099	-17.41
838.282	27.65
838.465	-15.36
838.648	15.36
838.832	-60.42
839.015	35.84
839.198	3.07
839.381	23.55
839.565	-3.07
839.748	17.41
839.931	19.46
840.114	50.18
840.297	349.18
840.48	27.65
840.663	-27.65
840.847	31.74
841.03	-5.12
841.213	87.04
841.396	-17.41
841.579	136.19
841.762	50.18
841.945	214.01
842.128	332.79
842.311	134.14
842.494	37.89
842.677	52.22
842.86	-66.56
843.043	-11.26
843.226	132.09
843.409	-93.18
843.592	66.56
843.775	15.36
843.958	9.22
844.141	23.55
844.323	31.74
844.506	-17.41
844.689	-64.51
844.872	78.85
845.055	-84.99
845.238	-123.9
845.42	64.51
845.603	-60.42
845.786	-72.7
845.969	113.66
846.152	80.89
846.334	103.42
846.517	31.74
846.7	-23.55
846.883	39.94
847.065	-44.03
847.248	-80.89
847.431	-52.22
847.613	11.26
847.796	70.65
847.979	-41.98
848.161	58.37
848.344	-23.55
848.526	29.7
848.709	-74.75
848.892	23.55
849.074	-37.89
849.257	5.12
849.439	-27.65
849.622	11.26
849.804	3.07
849.987	-50.18
850.169	-46.08
850.352	23.55
850.534	-17.41
850.717	-74.75
850.899	82.94
851.082	23.55
851.264	25.6
851.446	23.55
851.629	23.55
851.811	52.22
851.994	1.02
852.176	66.56
852.358	-19.46
852.541	-68.61
852.723	-78.85
852.905	17.41
853.088	-70.65
853.27	31.74
853.452	64.51
853.635	-66.56
853.817	21.5
853.999	-7.17
854.181	33.79
854.363	17.41
854.546	9.22
854.728	-25.6
854.91	72.7
855.092	95.23
855.274	-44.03
855.457	-66.56
855.639	5.12
855.821	25.6
856.003	128
856.185	-41.98
856.367	66.56
856.549	91.13
856.731	-23.55
856.913	50.18
857.095	70.65
857.277	52.22
857.459	-13.31
857.641	48.13
857.823	-87.04
858.005	50.18
858.187	-1.02
858.369	-68.61
858.551	-13.31
858.733	87.04
858.915	105.47
859.097	-1.02
859.279	-31.74
859.461	113.66
859.643	39.94
859.824	-17.41
860.006	23.55
860.188	52.22
860.37	-17.41
860.552	-27.65
860.734	13.31
860.915	46.08
861.097	60.42
861.279	-27.65
861.461	62.46
861.642	-3.07
861.824	-13.31
862.006	-70.65
862.188	-33.79
862.369	109.57
862.551	-99.33
862.733	19.46
862.914	-99.33
863.096	29.7
863.278	-27.65
863.459	-46.08
863.641	-19.46
863.822	25.6
864.004	-1.02
864.185	50.18
864.367	-15.36
864.549	27.65
864.73	7.17
864.912	21.5
865.093	15.36
865.275	-64.51
865.456	35.84
865.638	44.03
865.819	37.89
866.001	-29.7
866.182	-109.57
866.363	3.07
866.545	-82.94
866.726	-72.7
866.908	3.07
867.089	62.46
867.27	27.65
867.452	23.55
867.633	-93.18
867.814	50.18
867.996	-19.46
868.177	21.5
868.358	15.36
868.54	-80.89
868.721	-41.98
868.902	50.18
869.083	37.89
869.265	56.32
869.446	-17.41
869.627	-19.46
869.808	-39.94
869.989	48.13
870.171	23.55
870.352	52.22
870.533	-125.95
870.714	27.65
870.895	54.27
871.076	48.13
871.257	-33.79
871.438	-48.13
871.619	-17.41
871.801	-66.56
871.982	91.13
872.163	50.18
872.344	-3.07
872.525	-41.98
872.706	-15.36
872.887	62.46
873.068	76.8
873.249	37.89
873.43	56.32
873.61	68.61
873.791	33.79
873.972	33.79
874.153	-50.18
874.334	-50.18
874.515	44.03
874.696	84.99
874.877	-29.7
875.058	35.84
875.238	-50.18
875.419	33.79
875.6	-70.65
875.781	-1.02
875.962	58.37
876.142	91.13
876.323	-70.65
876.504	95.23
876.685	-107.52
876.865	13.31
877.046	48.13
877.227	91.13
877.407	-1.02
877.588	37.89
877.769	-9.22
877.949	58.37
878.13	-39.94
878.311	109.57
878.491	-31.74
878.672	76.8
878.853	-117.76
879.033	27.65
879.214	52.22
879.394	-58.37
879.575	-39.94
879.755	25.6
879.936	37.89
880.116	-62.46
880.297	-54.27
880.477	39.94
880.658	9.22
880.838	-70.65
881.019	-41.98
881.199	5.12
881.38	68.61
881.56	19.46
881.74	17.41
881.921	-29.7
882.101	60.42
882.281	-25.6
882.462	60.42
882.642	-1.02
882.822	5.12
883.003	19.46
883.183	-29.7
883.363	-9.22
883.544	-5.12
883.724	7.17
883.904	152.57
884.084	41.98
884.265	82.94
884.445	-52.22
884.625	-84.99
884.805	-78.85
884.985	84.99
885.166	-7.17
885.346	-60.42
885.526	21.5
885.706	136.19
885.886	-19.46
886.066	-19.46
886.246	19.46
886.426	15.36
886.606	25.6
886.787	-15.36
886.967	-23.55
887.147	39.94
887.327	62.46
887.507	-84.99
887.687	-7.17
887.867	21.5
888.047	-17.41
888.227	31.74
888.406	17.41
888.586	19.46
888.766	-56.32
888.946	-35.84
889.126	-70.65
889.306	-33.79
889.486	95.23
889.666	64.51
889.846	5.12
890.025	23.55
890.205	-9.22
890.385	52.22
890.565	5.12
890.745	115.71
890.924	-48.13
891.104	-89.09
891.284	80.89
891.464	66.56
891.643	111.61
891.823	-101.37
892.003	134.14
892.183	-21.5
892.362	-3.07
892.542	44.03
892.722	29.7
892.901	-60.42
893.081	3.07
893.26	-35.84
893.44	-35.84
893.62	41.98
893.799	-9.22
893.979	-29.7
894.158	37.89
894.338	7.17
894.517	-37.89
894.697	87.04
894.877	17.41
895.056	-9.22
895.236	-56.32
895.415	-58.37
895.594	132.09
895.774	25.6
895.953	-13.31
896.133	39.94
896.312	-46.08
896.492	23.55
896.671	-11.26
896.85	-5.12
897.03	-39.94
897.209	19.46
897.388	-41.98
897.568	17.41
897.747	21.5
897.926	-78.85
898.106	-101.37
898.285	-44.03
898.464	-5.12
898.643	23.55
898.823	5.12
899.002	19.46
899.181	52.22
899.36	60.42
899.54	-5.12
899.719	-54.27
899.898	64.51
900.077	-33.79
900.256	15.36
900.435	21.5
900.614	-3.07
900.794	17.41
900.973	44.03
901.152	23.55
901.331	29.7
901.51	-58.37
901.689	9.22
901.868	64.51
902.047	19.46
902.226	17.41
902.405	-31.74
902.584	-33.79
902.763	44.03
902.942	44.03
903.121	-91.13
903.3	-66.56
903.479	15.36
903.658	46.08
903.837	-54.27
904.015	50.18
904.194	7.17
904.373	52.22
904.552	64.51
904.731	-39.94
904.91	-5.12
905.089	-70.65
905.267	19.46
905.446	7.17
905.625	1.02
905.804	21.5
905.982	80.89
906.161	-80.89
906.34	37.89
906.519	-13.31
906.697	-23.55
906.876	-48.13
907.055	-87.04
907.233	-29.7
907.412	82.94
907.591	-111.61
907.769	97.28
907.948	-17.41
908.127	-21.5
908.305	37.89
908.484	-27.65
908.662	15.36
908.841	-78.85
909.019	15.36
909.198	-15.36
909.377	93.18
909.555	-31.74
909.734	27.65
909.912	70.65
910.09	-50.18
910.269	-15.36
910.447	48.13
910.626	3.07
910.804	44.03
910.983	27.65
911.161	-64.51
911.339	17.41
911.518	31.74
911.696	-66.56
911.875	-27.65
912.053	-29.7
912.231	-46.08
912.41	-9.22
912.588	25.6
912.766	-41.98
912.944	-50.18
913.123	5.12
913.301	-142.33
913.479	11.26
913.657	21.5
913.836	9.22
914.014	-97.28
914.192	93.18
914.37	-44.03
914.548	93.18
914.727	121.85
914.905	-3.07
915.083	11.26
915.261	62.46
915.439	33.79
915.617	-15.36
915.795	-23.55
915.973	35.84
916.151	-9.22
916.329	19.46
916.508	-48.13
916.686	15.36
916.864	19.46
917.042	37.89
917.22	-107.52
917.398	-33.79
917.575	15.36
917.753	15.36
917.931	-70.65
918.109	13.31
918.287	27.65
918.465	-37.89
918.643	-132.09
918.821	41.98
918.999	7.17
919.177	62.46
919.354	-31.74
919.532	-68.61
919.71	50.18
919.888	-37.89
920.066	-70.65
920.243	-1.02
920.421	29.7
920.599	80.89
920.777	21.5
920.954	54.27
921.132	-35.84
921.31	27.65
921.488	19.46
921.665	1.02
921.843	1.02
922.021	11.26
922.198	3.07
922.376	-33.79
922.553	9.22
922.731	-17.41
922.909	-62.46
923.086	21.5
923.264	-11.26
923.441	-41.98
923.619	-89.09
923.796	99.33
923.974	-15.36
924.152	-95.23
924.329	5.12
924.507	103.42
924.684	-35.84
924.861	50.18
925.039	87.04
925.216	-66.56
925.394	-93.18
925.571	31.74
925.749	68.61
925.926	1.02
926.103	-19.46
926.281	-23.55
926.458	-27.65
926.635	62.46
926.813	13.31
926.99	27.65
927.167	-62.46
927.345	3.07
927.522	-9.22
927.699	64.51
927.876	15.36
928.054	76.8
928.231	-17.41
928.408	23.55
928.585	146.43
928.763	58.37
928.94	-23.55
929.117	19.46
929.294	-68.61
929.471	-1.02
929.648	33.79
929.825	11.26
930.003	54.27
930.18	-60.42
930.357	-33.79
930.534	-97.28
930.711	-35.84
930.888	9.22
931.065	37.89
931.242	56.32
931.419	-44.03
931.596	80.89
931.773	-11.26
931.95	-27.65
932.127	-44.03
932.304	-80.89
932.481	-13.31
932.658	9.22
932.835	-1.02
933.011	21.5
933.188	-60.42
933.365	25.6
933.542	54.27
933.719	-48.13
933.896	35.84
934.073	56.32
934.249	-50.18
934.426	41.98
934.603	-17.41
934.78	13.31
934.957	-27.65
935.133	-76.8
935.31	-19.46
935.487	-87.04
935.664	-27.65
935.84	-7.17
936.017	-60.42
936.194	78.85
936.37	3.07
936.547	-19.46
936.724	78.85
936.9	13.31
937.077	72.7
937.253	13.31
937.43	-78.85
937.607	13.31
937.783	7.17
937.96	17.41
938.136	62.46
938.313	-1.02
938.489	35.84
938.666	-17.41
938.842	7.17
939.019	-9.22
939.195	-33.79
939.372	-25.6
939.548	-15.36
939.725	3.07
939.901	11.26
940.077	52.22
940.254	54.27
940.43	-54.27
940.607	-7.17
940.783	78.85
940.959	123.9
941.136	125.95
941.312	58.37
941.488	27.65
941.665	-62.46
941.841	109.57
942.017	-35.84
942.193	-41.98
942.37	-23.55
942.546	3.07
942.722	3.07
942.898	17.41
943.074	-37.89
943.251	-162.81
943.427	-5.12
943.603	19.46
943.779	64.51
943.955	140.29
944.131	-39.94
944.308	44.03
944.484	-91.13
944.66	27.65
944.836	-52.22
945.012	9.22
945.188	62.46
945.364	64.51
945.54	-19.46
945.716	-13.31
945.892	9.22
946.068	-29.7
946.244	-19.46
946.42	15.36
946.596	-33.79
946.772	33.79
946.948	-33.79
947.124	-60.42
947.3	7.17
947.475	-52.22
947.651	39.94
947.827	-27.65
948.003	46.08
948.179	9.22
948.355	-62.46
948.531	-3.07
948.706	7.17
948.882	93.18
949.058	-11.26
949.234	-37.89
949.409	-31.74
949.585	15.36
949.761	115.71
949.937	-41.98
950.112	11.26
950.288	-58.37
950.464	33.79
950.639	5.12
950.815	54.27
950.991	44.03
951.166	3.07
951.342	31.74
951.518	48.13
951.693	15.36
951.869	-3.07
952.044	97.28
952.22	17.41
952.395	-29.7
952.571	11.26
952.747	-68.61
952.922	31.74
953.098	-41.98
953.273	3.07
953.448	-27.65
953.624	15.36
953.799	95.23
953.975	70.65
954.15	-5.12
954.326	-3.07
954.501	29.7
954.676	3.07
954.852	25.6
955.027	-5.12
955.203	-21.5
955.378	-84.99
955.553	-7.17
955.729	-93.18
955.904	-93.18
956.079	56.32
956.254	-15.36
956.43	-31.74
956.605	91.13
956.78	23.55
956.955	113.66
957.131	119.81
957.306	76.8
957.481	-3.07
957.656	-19.46
957.831	5.12
958.007	93.18
958.182	-29.7
958.357	9.22
958.532	21.5
958.707	109.57
958.882	1.02
959.057	19.46
959.232	-13.31
959.407	-39.94
959.582	13.31
959.757	-113.66
959.932	-27.65
960.107	-80.89
960.282	29.7
960.457	-76.8
960.632	-9.22
960.807	-117.76
960.982	41.98
961.157	-13.31
961.332	-9.22
961.507	-87.04
961.682	46.08
961.857	-46.08
962.032	-1.02
962.206	-15.36
962.381	3.07
962.556	-144.38
962.731	-74.75
962.906	-17.41
963.081	21.5
963.255	15.36
963.43	72.7
963.605	-35.84
963.78	29.7
963.954	29.7
964.129	44.03
964.304	105.47
964.479	41.98
964.653	1.02
964.828	-128
965.003	21.5
965.177	37.89
965.352	1.02
965.526	31.74
965.701	78.85
965.876	62.46
966.05	-19.46
966.225	41.98
966.399	-111.61
966.574	-35.84
966.748	-11.26
966.923	-15.36
967.098	19.46
967.272	-58.37
967.446	31.74
967.621	78.85
967.795	64.51
967.97	7.17
968.144	66.56
968.319	9.22
968.493	44.03
968.668	-13.31
968.842	95.23
969.016	-5.12
969.191	95.23
969.365	-68.61
969.539	-9.22
969.714	97.28
969.888	13.31
970.062	-46.08
970.237	82.94
970.411	99.33
970.585	-15.36
970.759	-23.55
970.934	-35.84
971.108	-19.46
971.282	13.31
971.456	-17.41
971.63	27.65
971.805	31.74
971.979	15.36
972.153	-23.55
972.327	-33.79
972.501	-82.94
972.675	-1.02
972.849	25.6
973.024	25.6
973.198	-35.84
973.372	66.56
973.546	41.98
973.72	66.56
973.894	25.6
974.068	17.41
974.242	-41.98
974.416	-66.56
974.59	33.79
974.764	-29.7
974.938	-1.02
975.112	107.52
975.286	-17.41
975.46	31.74
975.633	27.65
975.807	111.61
975.981	-25.6
976.155	-48.13
976.329	31.74
976.503	37.89
976.677	-74.75
976.85	-15.36
977.024	50.18
977.198	-31.74
977.372	1.02
977.546	140.29
977.719	-99.33
977.893	-41.98
978.067	56.32
978.241	-35.84
978.414	19.46
978.588	-54.27
978.762	-23.55
978.935	64.51
979.109	168.96
979.283	44.03
979.456	-54.27
979.63	-105.47
979.804	-39.94
979.977	-103.42
980.151	-82.94
980.324	-21.5
980.498	82.94
980.671	37.89
980.845	72.7
981.018	50.18
981.192	33.79
981.365	17.41
981.539	68.61
981.712	17.41
981.886	-74.75
982.059	-48.13
982.233	-25.6
982.406	-50.18
982.58	-11.26
982.753	-1.02
982.926	3.07
983.1	-29.7
983.273	72.7
983.446	54.27
983.62	15.36
983.793	60.42
983.966	-89.09
984.14	37.89
984.313	13.31
984.486	-72.7
984.66	62.46
984.833	33.79
985.006	-44.03
985.179	-33.79
985.352	-27.65
985.526	-7.17
985.699	29.7
985.872	-56.32
986.045	115.71
986.218	-39.94
986.391	93.18
986.565	-78.85
986.738	-31.74
986.911	-78.85
987.084	25.6
987.257	-11.26
987.43	-68.61
987.603	33.79
987.776	-78.85
987.949	46.08
988.122	-1.02
988.295	-41.98
988.468	107.52
988.641	50.18
988.814	-11.26
988.987	-15.36
989.16	37.89
989.333	37.89
989.506	72.7
989.679	58.37
989.852	-87.04
990.025	-5.12
990.197	-13.31
990.37	-27.65
990.543	3.07
990.716	60.42
990.889	-7.17
991.062	7.17
991.234	-3.07
991.407	84.99
991.58	50.18
991.753	-9.22
991.925	-33.79
992.098	-13.31
992.271	-121.85
992.444	56.32
992.616	-13.31
992.789	113.66
992.962	-25.6
993.134	66.56
993.307	48.13
993.479	-17.41
993.652	-48.13
993.825	-33.79
993.997	-9.22
994.17	50.18
994.342	-35.84
994.515	-5.12
994.688	-101.37
994.86	-17.41
995.033	-23.55
995.205	21.5
995.378	62.46
995.55	19.46
995.723	21.5
995.895	19.46
996.067	-74.75
996.24	11.26
996.412	21.5
996.585	9.22
996.757	-15.36
996.929	1.02
997.102	-5.12
997.274	48.13
997.447	-62.46
997.619	13.31
997.791	93.18
997.964	50.18
998.136	101.37
998.308	68.61
998.48	-80.89
998.653	-33.79
998.825	31.74
998.997	93.18
999.169	7.17
999.342	3.07
999.514	37.89
999.686	95.23
999.858	-5.12
1000.03	-17.41
1000.202	48.13
1000.374	3.07
1000.547	-39.94
1000.719	-103.42
1000.891	19.46
1001.063	9.22
1001.235	3.07
1001.407	-121.85
1001.579	3.07
1001.751	-84.99
1001.923	-35.84
1002.095	-29.7
1002.267	156.67
1002.439	93.18
1002.611	52.22
1002.783	-72.7
1002.955	121.85
1003.127	60.42
1003.299	48.13
1003.471	97.28
1003.643	-52.22
1003.815	-62.46
1003.986	3.07
1004.158	-9.22
1004.33	-93.18
1004.502	-41.98
1004.674	9.22
1004.846	60.42
1005.017	-87.04
1005.189	148.48
1005.361	-17.41
1005.533	-68.61
1005.704	95.23
1005.876	-3.07
1006.048	66.56
1006.22	27.65
1006.391	-70.65
1006.563	56.32
1006.735	21.5
1006.906	31.74
1007.078	-80.89
1007.25	-3.07
1007.421	-13.31
1007.593	-87.04
1007.764	52.22
1007.936	68.61
1008.108	7.17
1008.279	37.89
1008.451	-17.41
1008.622	25.6
1008.794	-21.5
1008.965	50.18
1009.137	-7.17
1009.308	-13.31
1009.48	-68.61
1009.651	68.61
1009.823	-93.18
1009.994	41.98
1010.165	-1.02
1010.337	54.27
1010.508	-1.02
1010.68	-93.18
1010.851	-37.89
1011.022	23.55
1011.194	-113.66
1011.365	-50.18
1011.536	39.94
1011.708	15.36
1011.879	-115.71
1012.05	1.02
1012.222	-33.79
1012.393	-56.32
1012.564	-76.8
1012.735	-3.07
1012.906	-31.74
1013.078	25.6
1013.249	74.75
1013.42	54.27
1013.591	-17.41
1013.762	-3.07
1013.934	-9.22
1014.105	46.08
1014.276	9.22
1014.447	-93.18
1014.618	35.84
1014.789	27.65
1014.96	17.41
1015.131	13.31
1015.302	48.13
1015.473	82.94
1015.644	-23.55
1015.815	-60.42
1015.986	-56.32
1016.157	33.79
1016.328	-95.23
1016.499	3.07
1016.67	-56.32
1016.841	44.03
1017.012	23.55
1017.183	-17.41
1017.354	21.5
1017.525	13.31
1017.696	-41.98
1017.867	39.94
1018.037	31.74
1018.208	52.22
1018.379	-19.46
1018.55	68.61
1018.721	23.55
1018.891	-25.6
1019.062	52.22
1019.233	-46.08
1019.404	54.27
1019.574	5.12
1019.745	-15.36
1019.916	44.03
1020.087	27.65
1020.257	-113.66
1020.428	-29.7
1020.599	5.12
1020.769	17.41
1020.94	87.04
1021.11	-136.19
1021.281	33.79
1021.452	-13.31
1021.622	9.22
1021.793	-15.36
1021.963	-35.84
1022.134	-44.03
1022.305	-11.26
1022.475	-62.46
1022.646	7.17
1022.816	-5.12
1022.987	21.5
1023.157	-29.7
1023.327	70.65
1023.498	37.89
1023.668	-103.42
1023.839	-27.65
1024.009	62.46
1024.18	19.46
1024.35	52.22
1024.52	-54.27
1024.691	-48.13
1024.861	-78.85
1025.031	29.7
1025.202	33.79
1025.372	-41.98
1025.542	-19.46
1025.713	31.74
1025.883	82.94
1026.053	19.46
1026.223	-7.17
1026.394	-87.04
1026.564	-15.36
1026.734	41.98
1026.904	-17.41
1027.074	27.65
1027.245	35.84
1027.415	39.94
1027.585	66.56
1027.755	35.84
1027.925	-97.28
1028.095	95.23
1028.265	19.46
1028.435	91.13
1028.606	-9.22
1028.776	54.27
1028.946	13.31
1029.116	-7.17
1029.286	-31.74
1029.456	33.79
1029.626	-33.79
1029.796	19.46
1029.966	-72.7
1030.136	-95.23
1030.306	70.65
1030.475	33.79
1030.645	62.46
1030.815	66.56
1030.985	74.75
1031.155	-80.89
1031.325	-50.18
1031.495	-107.52
1031.665	-101.37
1031.835	64.51
1032.004	48.13
1032.174	21.5
1032.344	17.41
1032.514	-11.26
1032.684	19.46
1032.853	-41.98
1033.023	50.18
1033.193	-89.09
1033.362	-111.61
1033.532	-41.98
1033.702	72.7
1033.872	41.98
1034.041	35.84
1034.211	-3.07
1034.381	41.98
1034.55	-46.08
1034.72	44.03
1034.889	48.13
1035.059	5.12
1035.229	-21.5
1035.398	68.61
1035.568	48.13
1035.737	-58.37
1035.907	25.6
1036.076	50.18
1036.246	-89.09
1036.415	62.46
1036.585	50.18
1036.754	78.85
1036.924	78.85
1037.093	66.56
1037.263	9.22
1037.432	-46.08
1037.601	-31.74
1037.771	-66.56
1037.94	56.32
1038.11	-29.7
1038.279	3.07
1038.448	121.85
1038.618	-80.89
1038.787	-19.46
1038.956	91.13
1039.126	-56.32
1039.295	-64.51
1039.464	54.27
1039.633	-50.18
1039.803	-41.98
1039.972	150.53
1040.141	9.22
1040.31	35.84
1040.479	-21.5
1040.649	-46.08
1040.818	23.55
1040.987	-9.22
1041.156	66.56
1041.325	-46.08
1041.494	25.6
1041.663	-60.42
1041.833	-39.94
1042.002	-91.13
1042.171	-41.98
1042.34	17.41
1042.509	-17.41
1042.678	-1.02
