Data from LSP65_S14_Subt4_17-20-32-891.txt Node
Date: Wed Aug 09 17:20:32 EDT 2023
User: Emmanuel
Spectrometer: USB4A00615
Scans to average: 1
Trigger mode: 1
Integration Time (sec): 5.000000E-3
Electric dark correction enabled: true
Boxcar width: 0
XAxis mode: Wavelengths
Number of Pixels in Spectrum: 3648
>>>>>Begin Spectral Data<<<<<
346.606	-43.69
346.818	-43.69
347.029	-43.69
347.241	11.61
347.452	27.99
347.664	-25.26
347.876	-49.83
348.087	32.08
348.299	-66.22
348.51	-45.74
348.722	60.76
348.933	95.57
349.145	-6.83
349.356	107.86
349.568	1.37
349.779	-64.17
349.991	-39.59
350.202	-27.31
350.414	-90.79
350.625	-53.93
350.836	7.51
351.048	-107.18
351.259	-148.14
351.471	19.8
351.682	32.08
351.893	-4.78
352.105	68.95
352.316	-45.74
352.527	5.46
352.739	13.65
352.95	93.52
353.161	-58.03
353.372	17.75
353.584	1.37
353.795	19.8
354.006	71
354.217	42.32
354.429	21.85
354.64	36.18
354.851	27.99
355.062	52.56
355.274	32.08
355.485	42.32
355.696	1.37
355.907	56.66
356.118	-15.02
356.329	66.9
356.54	91.48
356.752	-41.64
356.963	130.39
357.174	21.85
357.385	-33.45
357.596	1.37
357.807	19.8
358.018	60.76
358.229	-27.31
358.44	-17.07
358.651	32.08
358.862	-55.98
359.073	1.37
359.284	50.52
359.495	32.08
359.706	-103.08
359.917	-109.23
360.128	13.65
360.339	9.56
360.55	-80.55
360.761	15.7
360.972	50.52
361.182	3.41
361.393	44.37
361.604	-45.74
361.815	23.89
362.026	99.67
362.237	13.65
362.447	34.13
362.658	-53.93
362.869	-39.59
363.08	-90.79
363.291	60.76
363.501	54.61
363.712	-15.02
363.923	-84.65
364.134	-92.84
364.344	-96.94
364.555	-25.26
364.766	48.47
364.976	-98.99
365.187	-10.92
365.398	132.44
365.608	11.61
365.819	-6.83
366.03	-4.78
366.24	-72.36
366.451	-84.65
366.662	19.8
366.872	15.7
367.083	15.7
367.293	56.66
367.504	32.08
367.714	-35.5
367.925	130.39
368.135	-80.55
368.346	60.76
368.557	-94.89
368.767	-111.27
368.977	-12.97
369.188	-6.83
369.398	93.52
369.609	58.71
369.819	5.46
370.03	-10.92
370.24	-25.26
370.451	-39.59
370.661	114
370.871	-17.07
371.082	-4.78
371.292	9.56
371.502	15.7
371.713	46.42
371.923	-2.73
372.133	-35.5
372.344	40.28
372.554	-17.07
372.764	-10.92
372.975	27.99
373.185	-12.97
373.395	-58.03
373.605	-60.07
373.816	91.48
374.026	19.8
374.236	-43.69
374.446	32.08
374.656	-10.92
374.867	38.23
375.077	-101.03
375.287	-45.74
375.497	-53.93
375.707	15.7
375.917	-4.78
376.127	30.04
376.338	7.51
376.548	-10.92
376.758	66.9
376.968	-74.41
377.178	11.61
377.388	-45.74
377.598	111.96
377.808	11.61
378.018	46.42
378.228	1.37
378.438	-21.16
378.648	-58.03
378.858	-66.22
379.068	19.8
379.278	13.65
379.488	-55.98
379.698	-45.74
379.908	46.42
380.118	-101.03
380.327	17.75
380.537	-17.07
380.747	-68.27
380.957	83.28
381.167	13.65
381.377	66.9
381.587	-101.03
381.796	13.65
382.006	32.08
382.216	-19.11
382.426	-6.83
382.636	30.04
382.845	-15.02
383.055	-27.31
383.265	34.13
383.475	-17.07
383.684	1.37
383.894	-0.68
384.104	97.62
384.313	-17.07
384.523	-60.07
384.733	44.37
384.942	81.24
385.152	-51.88
385.362	9.56
385.571	71
385.781	-88.75
385.991	58.71
386.2	-12.97
386.41	-0.68
386.619	-113.32
386.829	128.34
387.038	-70.31
387.248	103.76
387.457	-12.97
387.667	-35.5
387.876	52.56
388.086	-27.31
388.295	-49.83
388.505	-117.42
388.714	109.91
388.924	-129.7
389.133	40.28
389.343	36.18
389.552	48.47
389.762	17.75
389.971	-23.21
390.18	-2.73
390.39	-12.97
390.599	-39.59
390.808	-109.22
391.018	13.65
391.227	-66.22
391.436	-66.22
391.646	-8.87
391.855	87.38
392.064	-12.97
392.274	44.37
392.483	-103.08
392.692	-72.36
392.901	-41.64
393.111	-2.73
393.32	-84.65
393.529	71
393.738	17.75
393.947	-68.27
394.157	-148.14
394.366	11.61
394.575	-25.26
394.784	116.05
394.993	1.37
395.202	11.61
395.411	-12.97
395.62	93.52
395.83	-29.35
396.039	-17.07
396.248	42.32
396.457	23.89
396.666	109.91
396.875	56.66
397.084	17.75
397.293	-62.12
397.502	79.19
397.711	25.94
397.92	1.37
398.129	1.37
398.338	-12.97
398.547	-35.5
398.756	-70.31
398.965	60.76
399.174	-29.35
399.382	-33.45
399.591	50.52
399.8	-66.22
400.009	11.61
400.218	56.66
400.427	-70.31
400.636	-70.31
400.844	-27.31
401.053	-15.02
401.262	34.13
401.471	7.51
401.68	-23.21
401.888	-58.03
402.097	42.32
402.306	-156.33
402.515	-8.87
402.723	-33.45
402.932	89.43
403.141	42.32
403.35	-12.97
403.558	66.9
403.767	-96.94
403.976	-68.27
404.184	-6.83
404.393	87.38
404.602	-23.21
404.81	46.42
405.019	-8.87
405.227	15.7
405.436	-17.07
405.645	15.7
405.853	-33.45
406.062	38.23
406.27	-15.02
406.479	-72.36
406.687	-21.16
406.896	-25.26
407.104	-37.55
407.313	27.99
407.521	38.23
407.73	-35.5
407.938	91.48
408.147	23.89
408.355	38.23
408.563	15.7
408.772	-23.21
408.98	13.65
409.189	-47.79
409.397	-111.27
409.605	9.56
409.814	-33.45
410.022	87.38
410.23	-119.46
410.439	32.08
410.647	-96.94
410.855	40.28
411.064	-45.74
411.272	-47.79
411.48	77.14
411.688	3.41
411.897	-0.68
412.105	-64.17
412.313	13.65
412.521	13.65
412.73	77.14
412.938	120.15
413.146	11.61
413.354	64.85
413.562	9.56
413.77	-23.21
413.979	-76.46
414.187	-0.68
414.395	-6.83
414.603	-58.03
414.811	62.8
415.019	-72.36
415.227	40.28
415.435	7.51
415.643	-23.21
415.851	-70.31
416.059	3.41
416.267	-37.55
416.475	32.08
416.683	64.85
416.891	79.19
417.099	91.48
417.307	34.13
417.515	32.08
417.723	-31.4
417.931	60.76
418.139	-12.97
418.347	-10.92
418.555	-51.88
418.763	7.51
418.971	3.41
419.179	5.46
419.386	-25.26
419.594	5.46
419.802	23.89
420.01	-12.97
420.218	17.75
420.426	-23.21
420.633	3.41
420.841	7.51
421.049	73.04
421.257	-47.79
421.464	25.94
421.672	-62.12
421.88	-53.93
422.088	-31.4
422.295	-8.87
422.503	79.19
422.711	11.61
422.918	-0.68
423.126	-51.88
423.334	95.57
423.541	-6.83
423.749	-53.93
423.956	-8.87
424.164	-74.41
424.372	23.89
424.579	-31.4
424.787	-17.07
424.994	-8.87
425.202	30.04
425.409	109.91
425.617	34.13
425.824	36.18
426.032	-88.75
426.239	23.89
426.447	68.95
426.654	23.89
426.862	-6.83
427.069	32.08
427.277	-37.55
427.484	-29.35
427.692	11.61
427.899	-105.13
428.106	36.18
428.314	-98.99
428.521	36.18
428.728	58.71
428.936	-62.12
429.143	-25.26
429.351	34.13
429.558	23.89
429.765	64.85
429.972	81.24
430.18	62.8
430.387	-19.11
430.594	-23.21
430.801	40.28
431.009	-23.21
431.216	-41.64
431.423	60.76
431.63	-68.27
431.838	42.32
432.045	-45.74
432.252	101.72
432.459	-60.07
432.666	-31.4
432.873	-2.73
433.081	50.52
433.288	75.09
433.495	-2.73
433.702	1.37
433.909	-27.31
434.116	13.65
434.323	124.24
434.53	120.15
434.737	-4.78
434.944	19.8
435.151	-27.31
435.358	50.52
435.565	46.42
435.772	-47.79
435.979	7.51
436.186	-62.12
436.393	21.84
436.6	73.04
436.807	19.8
437.014	-72.36
437.221	21.85
437.428	-2.73
437.635	-37.55
437.841	23.89
438.048	15.7
438.255	58.71
438.462	-92.84
438.669	-41.64
438.876	64.85
439.082	23.89
439.289	77.14
439.496	68.95
439.703	-31.4
439.91	85.33
440.116	130.39
440.323	40.28
440.53	-92.84
440.737	32.08
440.943	-4.78
441.15	25.94
441.357	122.2
441.563	-17.07
441.77	36.18
441.977	44.37
442.183	40.28
442.39	-53.93
442.597	36.18
442.803	-19.11
443.01	-27.31
443.216	36.18
443.423	-39.59
443.63	50.52
443.836	93.52
444.043	7.51
444.249	42.32
444.456	19.8
444.662	52.56
444.869	40.28
445.075	17.75
445.282	-0.68
445.488	1.37
445.695	-25.26
445.901	13.65
446.107	60.76
446.314	87.38
446.52	46.42
446.727	-68.27
446.933	89.43
447.139	60.76
447.346	-82.6
447.552	-15.02
447.759	-45.74
447.965	-51.88
448.171	-64.17
448.378	13.65
448.584	-53.93
448.79	-68.27
448.996	-84.65
449.203	52.56
449.409	-25.26
449.615	30.04
449.821	75.09
450.028	54.61
450.234	-15.02
450.44	107.86
450.646	-66.22
450.852	15.7
451.059	40.28
451.265	-2.73
451.471	1.37
451.677	-53.93
451.883	-2.73
452.089	1.37
452.295	-64.17
452.502	27.99
452.708	68.95
452.914	40.28
453.12	-4.78
453.326	-60.07
453.532	-111.27
453.738	58.71
453.944	7.51
454.15	-86.7
454.356	11.61
454.562	42.32
454.768	58.71
454.974	-53.93
455.18	77.14
455.386	81.24
455.592	-33.45
455.798	-45.74
456.003	-12.97
456.209	81.24
456.415	-49.83
456.621	50.52
456.827	17.75
457.033	-58.03
457.239	-0.68
457.444	-15.02
457.65	36.18
457.856	46.42
458.062	-72.36
458.268	85.33
458.473	9.56
458.679	-37.55
458.885	-49.83
459.091	-98.99
459.296	-33.45
459.502	-29.35
459.708	66.9
459.914	-53.93
460.119	-15.02
460.325	77.14
460.531	-15.02
460.736	64.85
460.942	42.32
461.147	15.7
461.353	40.28
461.559	73.04
461.764	7.51
461.97	71
462.175	-31.4
462.381	-29.35
462.587	-12.97
462.792	30.04
462.998	40.28
463.203	-135.85
463.409	-21.16
463.614	34.13
463.82	-4.78
464.025	32.08
464.231	3.41
464.436	13.65
464.641	107.86
464.847	116.05
465.052	-19.11
465.258	-15.02
465.463	19.8
465.669	-35.5
465.874	-107.18
466.079	118.1
466.285	-88.75
466.49	-45.74
466.695	-0.68
466.901	-37.55
467.106	46.42
467.311	-80.55
467.516	-47.79
467.722	-111.27
467.927	46.42
468.132	83.28
468.338	-60.07
468.543	-8.87
468.748	34.13
468.953	3.41
469.158	-10.92
469.364	38.23
469.569	-72.36
469.774	-4.78
469.979	-21.16
470.184	-15.02
470.389	148.82
470.594	-4.78
470.8	-39.59
471.005	-72.36
471.21	87.38
471.415	-0.68
471.62	36.18
471.825	19.8
472.03	-76.46
472.235	46.42
472.44	21.84
472.645	5.46
472.85	-0.68
473.055	-43.69
473.26	44.37
473.465	58.71
473.67	-0.68
473.875	-21.16
474.08	44.37
474.285	-64.17
474.49	-23.21
474.695	-21.16
474.899	-15.02
475.104	25.94
475.309	-51.88
475.514	27.99
475.719	-68.27
475.924	200.02
476.128	-27.31
476.333	1.37
476.538	32.08
476.743	9.56
476.948	15.7
477.152	-12.97
477.357	-27.31
477.562	44.37
477.767	-2.73
477.971	64.85
478.176	42.32
478.381	-55.98
478.585	48.47
478.79	-58.03
478.995	-19.11
479.199	54.61
479.404	87.38
479.609	52.56
479.813	-39.59
480.018	-47.79
480.223	56.66
480.427	-37.55
480.632	21.85
480.836	52.56
481.041	-23.21
481.245	38.23
481.45	-21.16
481.654	-39.59
481.859	-6.83
482.063	-37.55
482.268	54.61
482.472	64.85
482.677	79.19
482.881	-6.83
483.086	40.28
483.29	3.41
483.495	-64.17
483.699	64.85
483.903	71
484.108	3.41
484.312	40.28
484.517	-62.12
484.721	50.52
484.925	-8.87
485.13	-33.45
485.334	36.18
485.538	30.04
485.743	87.38
485.947	17.75
486.151	50.52
486.355	68.95
486.56	-8.87
486.764	17.75
486.968	-78.51
487.172	36.18
487.377	32.08
487.581	-29.35
487.785	34.13
487.989	77.14
488.193	64.85
488.397	-2.73
488.602	-25.26
488.806	5.46
489.01	-58.03
489.214	1.37
489.418	7.51
489.622	32.08
489.826	23.89
490.03	15.7
490.234	-33.45
490.438	5.46
490.642	11.61
490.846	19.8
491.05	62.8
491.254	-25.26
491.458	83.28
491.662	85.33
491.866	79.19
492.07	-64.17
492.274	103.76
492.478	36.18
492.682	7.51
492.886	38.23
493.09	-107.18
493.294	-119.46
493.498	60.76
493.701	-33.45
493.905	56.66
494.109	23.89
494.313	-35.5
494.517	-29.35
494.721	-43.69
494.924	21.85
495.128	11.61
495.332	3.41
495.536	-47.79
495.739	-62.12
495.943	-68.27
496.147	-19.11
496.351	36.18
496.554	-60.07
496.758	-76.46
496.962	-12.97
497.165	40.28
497.369	42.32
497.573	32.08
497.776	-23.21
497.98	-98.99
498.184	71
498.387	-96.94
498.591	48.47
498.794	105.81
498.998	27.99
499.202	30.04
499.405	-17.07
499.609	40.28
499.812	-0.68
500.016	-86.7
500.219	9.56
500.423	54.61
500.626	5.46
500.83	-111.27
501.033	87.38
501.237	-80.55
501.44	50.52
501.643	5.46
501.847	56.66
502.05	27.99
502.254	17.75
502.457	62.8
502.66	-23.21
502.864	21.84
503.067	-15.02
503.271	-19.11
503.474	-37.55
503.677	-43.69
503.88	-19.11
504.084	-53.93
504.287	-10.92
504.49	-35.5
504.694	-19.11
504.897	-21.16
505.1	-23.21
505.303	-41.64
505.507	-133.8
505.71	-37.55
505.913	-94.89
506.116	-47.79
506.319	-12.97
506.522	32.08
506.726	11.61
506.929	-25.26
507.132	-31.4
507.335	-15.02
507.538	-21.16
507.741	7.51
507.944	3.41
508.147	89.43
508.35	-4.78
508.553	122.2
508.756	9.56
508.959	-12.97
509.163	-49.83
509.366	1.37
509.569	-35.5
509.771	-8.87
509.974	-45.74
510.177	73.04
510.38	56.66
510.583	56.66
510.786	-25.26
510.989	114
511.192	-43.69
511.395	46.42
511.598	85.33
511.801	54.61
512.004	-47.79
512.206	75.09
512.409	-6.83
512.612	-49.83
512.815	7.51
513.018	-8.87
513.22	5.46
513.423	-0.68
513.626	-39.59
513.829	58.71
514.032	-31.4
514.234	-15.02
514.437	-37.55
514.64	9.56
514.842	23.89
515.045	32.08
515.248	-29.35
515.45	-15.02
515.653	19.8
515.856	-45.74
516.058	-33.45
516.261	66.9
516.464	66.9
516.666	50.52
516.869	27.99
517.071	-37.55
517.274	-137.9
517.477	58.71
517.679	-35.5
517.882	-15.02
518.084	-82.6
518.287	-27.31
518.489	58.71
518.692	52.56
518.894	50.52
519.097	-47.79
519.299	-8.87
519.501	71
519.704	-6.83
519.906	-47.79
520.109	-0.68
520.311	9.56
520.514	75.09
520.716	27.99
520.918	-23.21
521.121	81.24
521.323	40.28
521.525	85.33
521.728	-15.02
521.93	60.76
522.132	-15.02
522.335	73.04
522.537	75.09
522.739	13.65
522.941	25.94
523.144	11.61
523.346	27.99
523.548	17.75
523.75	34.13
523.952	5.46
524.155	71
524.357	25.94
524.559	71
524.761	-62.12
524.963	-62.12
525.165	40.28
525.368	-37.55
525.57	64.85
525.772	52.56
525.974	19.8
526.176	11.61
526.378	95.57
526.58	-25.26
526.782	136.53
526.984	-31.4
527.186	-10.92
527.388	-23.21
527.59	-53.93
527.792	-103.08
527.994	-2.73
528.196	77.14
528.398	13.65
528.6	91.48
528.802	-12.97
529.004	34.13
529.206	-6.83
529.408	56.66
529.609	5.46
529.811	44.37
530.013	13.65
530.215	99.67
530.417	52.56
530.619	-98.99
530.821	60.76
531.022	179.54
531.224	21.84
531.426	7.51
531.628	-17.07
531.829	38.23
532.031	-62.12
532.233	-41.64
532.435	42.32
532.636	-17.07
532.838	-37.55
533.04	7.51
533.241	-15.02
533.443	-31.4
533.645	-58.03
533.846	60.76
534.048	60.76
534.25	-43.69
534.451	-55.98
534.653	-10.92
534.855	-27.31
535.056	-45.74
535.258	58.71
535.459	9.56
535.661	50.52
535.862	75.09
536.064	-17.07
536.265	5.46
536.467	52.56
536.668	15.7
536.87	-25.26
537.071	-2.73
537.273	9.56
537.474	73.04
537.676	-86.7
537.877	-2.73
538.078	38.23
538.28	73.04
538.481	64.85
538.683	-2.73
538.884	13.65
539.085	-107.18
539.287	38.23
539.488	114
539.689	134.48
539.891	50.52
540.092	42.32
540.293	54.61
540.495	77.14
540.696	-2.73
540.897	-41.64
541.098	-72.36
541.3	56.66
541.501	-19.11
541.702	-64.17
541.903	-6.83
542.104	95.57
542.306	-12.97
542.507	52.56
542.708	-33.45
542.909	-25.26
543.11	64.85
543.311	17.75
543.512	-78.51
543.713	62.8
543.915	-74.41
544.116	-31.4
544.317	-23.21
544.518	195.92
544.719	48.47
544.92	-12.97
545.121	-4.78
545.322	171.35
545.523	58.71
545.724	-10.92
545.925	38.23
546.126	-2.73
546.327	44.37
546.528	91.48
546.729	-8.87
546.929	54.61
547.13	-6.83
547.331	-47.79
547.532	34.13
547.733	-23.21
547.934	5.46
548.135	-10.92
548.336	32.08
548.536	38.23
548.737	-19.11
548.938	81.24
549.139	-27.31
549.34	89.43
549.54	-23.21
549.741	-76.46
549.942	3.41
550.143	-105.13
550.343	-41.64
550.544	169.3
550.745	9.56
550.945	-6.83
551.146	-6.83
551.347	-8.87
551.547	-33.45
551.748	-76.46
551.949	75.09
552.149	3.41
552.35	27.99
552.551	-0.68
552.751	3.41
552.952	-19.11
553.152	-35.5
553.353	5.46
553.553	25.94
553.754	50.52
553.954	36.18
554.155	5.46
554.356	-8.87
554.556	1.37
554.756	-80.55
554.957	-27.31
555.157	30.04
555.358	126.29
555.558	-84.65
555.759	1.37
555.959	-33.45
556.159	7.51
556.36	52.56
556.56	36.18
556.761	-39.59
556.961	101.72
557.161	-4.78
557.362	19.8
557.562	13.65
557.762	62.8
557.963	-49.83
558.163	38.23
558.363	-92.84
558.563	89.43
558.764	7.51
558.964	21.85
559.164	73.04
559.364	23.89
559.565	62.8
559.765	-135.85
559.965	32.08
560.165	19.8
560.365	107.86
560.565	99.67
560.766	-17.07
560.966	-31.4
561.166	-17.07
561.366	27.99
561.566	144.72
561.766	-41.64
561.966	-39.59
562.166	54.61
562.366	71
562.566	42.32
562.766	27.99
562.966	105.81
563.166	-98.99
563.366	-66.22
563.566	-2.73
563.766	-31.4
563.966	48.47
564.166	60.76
564.366	93.52
564.566	97.62
564.766	3.41
564.966	15.7
565.166	-88.75
565.366	-101.03
565.565	56.66
565.765	9.56
565.965	-17.07
566.165	1.37
566.365	66.9
566.565	-29.35
566.764	-39.59
566.964	-51.88
567.164	103.76
567.364	-2.73
567.564	-2.73
567.763	48.47
567.963	-64.17
568.163	-15.02
568.362	27.99
568.562	38.23
568.762	-45.74
568.961	-6.83
569.161	-98.99
569.361	-66.22
569.56	25.94
569.76	21.85
569.96	-21.16
570.159	52.56
570.359	-129.7
570.558	13.65
570.758	17.75
570.958	7.51
571.157	17.75
571.357	56.66
571.556	-33.45
571.756	3.41
571.955	-23.21
572.155	79.19
572.354	83.28
572.554	-58.03
572.753	87.38
572.953	-6.83
573.152	30.04
573.351	30.04
573.551	-33.45
573.75	-0.68
573.95	114
574.149	-53.93
574.348	21.84
574.548	38.23
574.747	-90.79
574.946	-33.45
575.146	-10.92
575.345	-19.11
575.544	21.84
575.744	-23.21
575.943	-4.78
576.142	42.32
576.342	15.7
576.541	97.62
576.74	38.23
576.939	-49.83
577.138	40.28
577.338	91.48
577.537	-15.02
577.736	5.46
577.935	-8.87
578.134	5.46
578.333	-70.31
578.533	91.48
578.732	5.46
578.931	23.89
579.13	27.99
579.329	-15.02
579.528	-17.07
579.727	52.56
579.926	42.32
580.125	173.39
580.324	58.71
580.523	118.1
580.722	-86.7
580.921	-12.97
581.12	-49.83
581.319	58.71
581.518	-49.83
581.717	44.37
581.916	-10.92
582.115	-39.59
582.314	-4.78
582.513	-8.87
582.712	116.05
582.911	25.94
583.109	-115.37
583.308	17.75
583.507	75.09
583.706	-90.79
583.905	-15.02
584.104	30.04
584.302	48.47
584.501	-66.22
584.7	-53.93
584.899	142.68
585.098	-66.22
585.296	-55.98
585.495	81.24
585.694	54.61
585.892	-103.08
586.091	3.41
586.29	17.75
586.488	1.37
586.687	-51.88
586.886	-37.55
587.084	-51.88
587.283	134.48
587.482	-45.74
587.68	138.58
587.879	32.08
588.077	-23.21
588.276	-66.22
588.475	19.8
588.673	-25.26
588.872	15.7
589.07	36.18
589.269	23.89
589.467	-15.02
589.666	36.18
589.864	-10.92
590.063	9.56
590.261	46.42
590.46	-66.22
590.658	-8.87
590.857	-121.51
591.055	42.32
591.253	25.94
591.452	-49.83
591.65	-76.46
591.848	27.99
592.047	5.46
592.245	11.61
592.444	38.23
592.642	15.7
592.84	50.52
593.038	-51.88
593.237	-0.68
593.435	34.13
593.633	-21.16
593.832	-4.78
594.03	-31.4
594.228	-31.4
594.426	-15.02
594.624	-39.59
594.823	-27.31
595.021	-15.02
595.219	34.13
595.417	120.15
595.615	-8.87
595.813	-12.97
596.012	-64.17
596.21	-47.79
596.408	62.8
596.606	-47.79
596.804	21.85
597.002	-39.59
597.2	42.32
597.398	1.37
597.596	-6.83
597.794	109.91
597.992	64.85
598.19	-80.55
598.388	58.71
598.586	23.89
598.784	1.37
598.982	-37.55
599.18	97.62
599.378	40.28
599.576	81.24
599.774	46.42
599.972	58.71
600.17	75.09
600.368	-111.27
600.565	83.28
600.763	-15.02
600.961	-66.22
601.159	-101.03
601.357	13.65
601.555	38.23
601.752	11.61
601.95	54.61
602.148	58.71
602.346	15.7
602.544	-33.45
602.741	-98.99
602.939	-27.31
603.137	50.52
603.334	19.8
603.532	15.7
603.73	-35.5
603.927	34.13
604.125	-144.04
604.323	36.18
604.52	62.8
604.718	17.75
604.916	40.28
605.113	-94.89
605.311	21.85
605.508	-72.36
605.706	32.08
605.904	25.94
606.101	36.18
606.299	17.75
606.496	-6.83
606.694	93.52
606.891	-41.64
607.089	-76.46
607.286	54.61
607.484	91.48
607.681	40.28
607.879	19.8
608.076	9.56
608.273	-6.83
608.471	-8.87
608.668	3.41
608.866	3.41
609.063	38.23
609.26	15.7
609.458	21.85
609.655	23.89
609.852	11.61
610.05	19.8
610.247	-0.68
610.444	23.89
610.642	54.61
610.839	107.86
611.036	-41.64
611.233	-94.89
611.431	17.75
611.628	-53.93
611.825	-60.07
612.022	50.52
612.22	-43.69
612.417	-23.21
612.614	-43.69
612.811	40.28
613.008	-15.02
613.205	-12.97
613.402	11.61
613.6	95.57
613.797	-2.73
613.994	-47.79
614.191	-0.68
614.388	-27.31
614.585	-31.4
614.782	-15.02
614.979	7.51
615.176	52.56
615.373	-0.68
615.57	89.43
615.767	-62.12
615.964	36.18
616.161	38.23
616.358	1.37
616.555	-45.74
616.752	64.85
616.949	34.13
617.146	-55.98
617.343	-4.78
617.539	17.75
617.736	-6.83
617.933	66.9
618.13	-2.73
618.327	56.66
618.524	-6.83
618.721	34.13
618.917	-12.97
619.114	-25.26
619.311	13.65
619.508	-41.64
619.704	-82.6
619.901	91.48
620.098	-37.55
620.295	44.37
620.491	75.09
620.688	-78.51
620.885	-4.78
621.081	9.56
621.278	111.96
621.475	142.68
621.671	-15.02
621.868	25.94
622.065	5.46
622.261	48.47
622.458	-10.92
622.655	1.37
622.851	11.61
623.048	46.42
623.244	5.46
623.441	38.23
623.637	56.66
623.834	83.28
624.03	-33.45
624.227	-25.26
624.423	101.72
624.62	32.08
624.816	89.43
625.013	-12.97
625.209	-35.5
625.406	48.47
625.602	-2.73
625.798	11.61
625.995	77.14
626.191	-25.26
626.388	17.75
626.584	-33.45
626.78	77.14
626.977	114
627.173	-21.16
627.369	-47.79
627.566	-49.83
627.762	64.85
627.958	-58.03
628.154	-47.79
628.351	79.19
628.547	-49.83
628.743	50.52
628.939	38.23
629.136	-121.51
629.332	71
629.528	38.23
629.724	-27.31
629.92	64.85
630.116	114
630.313	56.66
630.509	58.71
630.705	95.57
630.901	-21.16
631.097	60.76
631.293	44.37
631.489	-15.02
631.685	7.51
631.881	-49.83
632.077	-109.23
632.273	5.46
632.469	15.7
632.665	-25.26
632.861	25.94
633.057	5.46
633.253	-55.98
633.449	34.13
633.645	62.8
633.841	-19.11
634.037	105.81
634.233	52.56
634.429	15.7
634.625	48.47
634.821	-78.51
635.017	66.9
635.212	-58.03
635.408	23.89
635.604	73.04
635.8	46.42
635.996	15.7
636.191	68.95
636.387	-45.74
636.583	36.18
636.779	-58.03
636.975	1.37
637.17	-31.4
637.366	101.72
637.562	-43.69
637.757	-41.64
637.953	-12.97
638.149	52.56
638.345	1.37
638.54	13.65
638.736	107.86
638.931	-35.5
639.127	21.85
639.323	-51.88
639.518	30.04
639.714	-19.11
639.909	-12.97
640.105	9.56
640.301	-8.87
640.496	19.8
640.692	-27.31
640.887	-41.64
641.083	-27.31
641.278	15.7
641.474	-10.92
641.669	-12.97
641.865	42.32
642.06	-90.79
642.256	-33.45
642.451	62.8
642.646	-8.87
642.842	32.08
643.037	-17.07
643.233	17.75
643.428	7.51
643.623	81.24
643.819	-10.92
644.014	103.76
644.209	19.8
644.405	40.28
644.6	89.43
644.795	-12.97
644.99	-2.73
645.186	73.04
645.381	38.23
645.576	85.33
645.771	32.08
645.967	-82.6
646.162	50.52
646.357	-135.85
646.552	73.04
646.747	-25.26
646.943	60.76
647.138	-8.87
647.333	7.51
647.528	-80.55
647.723	-39.59
647.918	-47.79
648.113	58.71
648.308	56.66
648.504	-0.68
648.699	-17.07
648.894	-17.07
649.089	-78.51
649.284	-6.83
649.479	7.51
649.674	62.8
649.869	103.76
650.064	99.67
650.259	-35.5
650.454	9.56
650.649	-33.45
650.844	-47.79
651.038	40.28
651.233	-45.74
651.428	-21.16
651.623	-0.68
651.818	-96.94
652.013	9.56
652.208	54.61
652.403	-72.36
652.597	46.42
652.792	36.18
652.987	75.09
653.182	52.56
653.377	85.33
653.571	101.72
653.766	85.33
653.961	-8.87
654.156	-51.88
654.35	-33.45
654.545	42.32
654.74	-2.73
654.935	114
655.129	52.56
655.324	32.08
655.519	91.48
655.713	62.8
655.908	-156.33
656.102	-6.83
656.297	-10.92
656.492	-23.21
656.686	-37.55
656.881	109.91
657.075	3.41
657.27	36.18
657.464	-84.65
657.659	46.42
657.854	118.1
658.048	-47.79
658.243	42.32
658.437	85.33
658.631	-35.5
658.826	73.04
659.02	-33.45
659.215	83.28
659.409	19.8
659.604	-55.98
659.798	97.62
659.992	36.18
660.187	-4.78
660.381	-0.68
660.576	5.46
660.77	15.7
660.964	-45.74
661.159	-31.4
661.353	11.61
661.547	-92.84
661.742	1.37
661.936	50.52
662.13	-33.45
662.324	56.66
662.519	81.24
662.713	75.09
662.907	-80.55
663.101	-123.56
663.295	-10.92
663.49	-17.07
663.684	68.95
663.878	-111.27
664.072	23.89
664.266	34.13
664.46	3.41
664.654	60.76
664.849	87.38
665.043	32.08
665.237	-43.69
665.431	-51.88
665.625	-10.92
665.819	34.13
666.013	-17.07
666.207	-115.37
666.401	109.91
666.595	-17.07
666.789	30.04
666.983	1.37
667.177	-17.07
667.371	5.46
667.565	-31.4
667.759	30.04
667.953	-17.07
668.147	73.04
668.34	3.41
668.534	-2.73
668.728	23.89
668.922	17.75
669.116	9.56
669.31	-21.16
669.504	5.46
669.697	-10.92
669.891	-39.59
670.085	25.94
670.279	25.94
670.473	-78.51
670.666	11.61
670.86	109.91
671.054	-12.97
671.248	-6.83
671.441	-27.31
671.635	1.37
671.829	-68.27
672.022	-64.17
672.216	109.91
672.41	52.56
672.603	60.76
672.797	64.85
672.99	144.72
673.184	36.18
673.378	54.61
673.571	-4.78
673.765	62.8
673.958	-8.87
674.152	62.8
674.345	-80.55
674.539	15.7
674.733	-47.79
674.926	-29.35
675.12	-109.23
675.313	-78.51
675.506	34.13
675.7	9.56
675.893	23.89
676.087	-27.31
676.28	-55.98
676.474	-31.4
676.667	5.46
676.86	-8.87
677.054	-41.64
677.247	25.94
677.441	66.9
677.634	-27.31
677.827	25.94
678.02	68.95
678.214	-49.83
678.407	-53.93
678.6	-15.02
678.794	-6.83
678.987	-8.87
679.18	56.66
679.373	1.37
679.567	13.65
679.76	-12.97
679.953	-55.98
680.146	-107.18
680.339	-51.88
680.533	30.04
680.726	32.08
680.919	1.37
681.112	48.47
681.305	-17.07
681.498	36.18
681.691	38.23
681.884	-58.03
682.077	-64.17
682.271	17.75
682.464	66.9
682.657	32.08
682.85	17.75
683.043	17.75
683.236	77.14
683.429	79.19
683.622	46.42
683.815	103.76
684.008	34.13
684.201	-39.59
684.393	-15.02
684.586	-33.45
684.779	87.38
684.972	-60.07
685.165	32.08
685.358	97.62
685.551	30.04
685.744	3.41
685.937	62.8
686.129	-70.31
686.322	81.24
686.515	-8.87
686.708	46.42
686.901	15.7
687.093	48.47
687.286	34.13
687.479	-37.55
687.672	56.66
687.864	-12.97
688.057	9.56
688.25	-12.97
688.442	46.42
688.635	46.42
688.828	-12.97
689.02	103.76
689.213	-49.83
689.406	21.85
689.598	-12.97
689.791	27.99
689.984	-33.45
690.176	130.39
690.369	87.38
690.561	21.85
690.754	-12.97
690.946	-8.87
691.139	-43.69
691.331	46.42
691.524	68.95
691.716	95.57
691.909	-0.68
692.101	-68.27
692.294	71
692.486	34.13
692.679	-6.83
692.871	-8.87
693.063	30.04
693.256	58.71
693.448	-119.46
693.641	-2.73
693.833	58.71
694.025	23.89
694.218	81.24
694.41	25.94
694.602	-162.47
694.795	25.94
694.987	-25.26
695.179	-4.78
695.372	23.89
695.564	-45.74
695.756	-10.92
695.948	5.46
696.14	-66.22
696.333	87.38
696.525	27.99
696.717	11.61
696.909	3.41
697.101	3.41
697.294	-31.4
697.486	23.89
697.678	60.76
697.87	73.04
698.062	-64.17
698.254	11.61
698.446	-4.78
698.638	9.56
698.83	-125.61
699.022	9.56
699.215	-27.31
699.407	7.51
699.599	-78.51
699.791	-58.03
699.983	-49.83
700.175	-0.68
700.367	-10.92
700.558	-0.68
700.75	-41.64
700.942	50.52
701.134	11.61
701.326	44.37
701.518	75.09
701.71	-4.78
701.902	-78.51
702.094	38.23
702.286	-53.93
702.477	56.66
702.669	-51.88
702.861	-15.02
703.053	48.47
703.245	-33.45
703.436	15.7
703.628	-41.64
703.82	-66.22
704.012	40.28
704.203	15.7
704.395	-17.07
704.587	-0.68
704.779	54.61
704.97	-107.18
705.162	-39.59
705.354	-49.83
705.545	27.99
705.737	-4.78
705.929	-86.7
706.12	-27.31
706.312	38.23
706.503	-72.36
706.695	27.99
706.887	3.41
707.078	15.7
707.27	19.8
707.461	95.57
707.653	-41.64
707.844	93.52
708.036	-12.97
708.227	-51.88
708.419	58.71
708.61	27.99
708.802	-21.16
708.993	120.15
709.185	73.04
709.376	7.51
709.567	79.19
709.759	19.8
709.95	-21.16
710.141	77.14
710.333	34.13
710.524	-29.35
710.716	23.89
710.907	13.65
711.098	79.19
711.289	-25.26
711.481	75.09
711.672	11.61
711.863	13.65
712.055	52.56
712.246	-60.07
712.437	-115.37
712.628	81.24
712.82	134.48
713.011	48.47
713.202	25.94
713.393	11.61
713.584	52.56
713.775	42.32
713.967	79.19
714.158	21.84
714.349	23.89
714.54	-60.07
714.731	30.04
714.922	27.99
715.113	40.28
715.304	64.85
715.495	-82.6
715.686	52.56
715.877	-70.31
716.068	120.15
716.259	-86.7
716.45	56.66
716.641	-39.59
716.832	13.65
717.023	-45.74
717.214	-8.87
717.405	-74.41
717.596	17.75
717.787	66.9
717.978	97.62
718.169	-25.26
718.36	-88.75
718.55	89.43
718.741	60.76
718.932	11.61
719.123	-12.97
719.314	89.43
719.505	44.37
719.695	54.61
719.886	58.71
720.077	44.37
720.268	-27.31
720.458	-51.88
720.649	9.56
720.84	68.95
721.031	-2.73
721.221	46.42
721.412	-58.03
721.603	-37.55
721.793	-37.55
721.984	-15.02
722.175	-37.55
722.365	48.47
722.556	-17.07
722.746	3.41
722.937	36.18
723.128	-29.35
723.318	40.28
723.509	77.14
723.699	19.8
723.89	130.39
724.08	-33.45
724.271	-55.98
724.461	-53.93
724.652	36.18
724.842	-74.41
725.033	-84.65
725.223	38.23
725.414	56.66
725.604	-15.02
725.794	-10.92
725.985	60.76
726.175	-162.47
726.366	11.61
726.556	-31.4
726.746	-107.18
726.937	44.37
727.127	9.56
727.317	-35.5
727.508	-27.31
727.698	-51.88
727.888	5.46
728.079	99.67
728.269	-15.02
728.459	68.95
728.649	-25.26
728.84	-19.11
729.03	1.37
729.22	-96.94
729.41	34.13
729.6	1.37
729.791	103.76
729.981	-66.22
730.171	62.8
730.361	36.18
730.551	-45.74
730.741	-15.02
730.931	-27.31
731.121	66.9
731.311	-6.83
731.502	23.89
731.692	-55.98
731.882	46.42
732.072	107.86
732.262	7.51
732.452	-39.59
732.642	64.85
732.832	38.23
733.022	-15.02
733.212	62.8
733.402	-25.26
733.591	77.14
733.781	13.65
733.971	-8.87
734.161	56.66
734.351	-76.46
734.541	52.56
734.731	-49.83
734.921	-51.88
735.111	27.99
735.3	-19.11
735.49	-39.59
735.68	52.56
735.87	48.47
736.06	21.84
736.249	-25.26
736.439	3.41
736.629	36.18
736.819	21.84
737.008	-49.83
737.198	17.75
737.388	-17.07
737.577	25.94
737.767	-15.02
737.957	-49.83
738.146	34.13
738.336	21.85
738.526	-17.07
738.715	42.32
738.905	-90.79
739.094	-47.79
739.284	73.04
739.474	62.8
739.663	32.08
739.853	107.86
740.042	-8.87
740.232	-21.16
740.421	126.29
740.611	42.32
740.8	-135.85
740.99	17.75
741.179	-66.22
741.369	3.41
741.558	13.65
741.748	19.8
741.937	-37.55
742.126	-72.36
742.316	30.04
742.505	-51.88
742.695	-12.97
742.884	99.67
743.073	-64.17
743.263	32.08
743.452	132.44
743.641	30.04
743.831	25.94
744.02	-135.85
744.209	126.29
744.398	-60.07
744.588	-10.92
744.777	-49.83
744.966	91.48
745.155	77.14
745.345	-55.98
745.534	32.08
745.723	-45.74
745.912	48.47
746.101	-62.12
746.29	19.8
746.48	-27.31
746.669	140.63
746.858	13.65
747.047	-37.55
747.236	-15.02
747.425	77.14
747.614	56.66
747.803	-70.31
747.992	-29.35
748.181	-4.78
748.37	75.09
748.559	-53.93
748.748	-37.55
748.937	25.94
749.126	27.99
749.315	17.75
749.504	-31.4
749.693	99.67
749.882	-27.31
750.071	-74.41
750.26	27.99
750.449	21.85
750.638	42.32
750.826	36.18
751.015	-47.79
751.204	-31.4
751.393	-51.88
751.582	-19.11
751.771	-6.83
751.959	58.71
752.148	9.56
752.337	-17.07
752.526	27.99
752.714	25.94
752.903	60.76
753.092	42.32
753.281	-6.83
753.469	5.46
753.658	-31.4
753.847	85.33
754.035	95.57
754.224	-8.87
754.413	97.62
754.601	60.76
754.79	50.52
754.979	40.28
755.167	-68.27
755.356	66.9
755.544	54.61
755.733	-64.17
755.921	11.61
756.11	42.32
756.298	-72.36
756.487	60.76
756.675	50.52
756.864	27.99
757.052	54.61
757.241	73.04
757.429	-66.22
757.618	-51.88
757.806	46.42
757.995	-35.5
758.183	-21.16
758.371	44.37
758.56	-49.83
758.748	3.41
758.937	-15.02
759.125	73.04
759.313	38.23
759.502	56.66
759.69	-0.68
759.878	38.23
760.066	-45.74
760.255	-62.12
760.443	-84.65
760.631	9.56
760.819	-23.21
761.008	-58.03
761.196	73.04
761.384	-43.69
761.572	-37.55
761.761	40.28
761.949	-8.87
762.137	19.8
762.325	-19.11
762.513	52.56
762.701	-27.31
762.889	91.48
763.077	-10.92
763.266	-15.02
763.454	99.67
763.642	-55.98
763.83	-55.98
764.018	11.61
764.206	-51.88
764.394	138.58
764.582	7.51
764.77	-45.74
764.958	-53.93
765.146	9.56
765.334	27.99
765.522	-21.16
765.71	27.99
765.898	7.51
766.085	15.7
766.273	-10.92
766.461	-19.11
766.649	-53.93
766.837	-2.73
767.025	138.58
767.213	-35.5
767.401	-19.11
767.588	-4.78
767.776	-76.46
767.964	5.46
768.152	60.76
768.339	-27.31
768.527	109.91
768.715	17.75
768.903	32.08
769.09	5.46
769.278	-23.21
769.466	-2.73
769.654	17.75
769.841	-66.22
770.029	91.48
770.217	-33.45
770.404	-62.12
770.592	-25.26
770.779	120.15
770.967	60.76
771.155	48.47
771.342	46.42
771.53	-68.27
771.717	-45.74
771.905	111.96
772.092	42.32
772.28	101.72
772.467	-96.94
772.655	126.29
772.842	-60.07
773.03	25.94
773.217	-19.11
773.405	71
773.592	-53.93
773.78	17.75
773.967	-53.93
774.154	32.08
774.342	-88.75
774.529	-6.83
774.717	-84.65
774.904	36.18
775.091	-15.02
775.279	-39.59
775.466	32.08
775.653	-29.35
775.841	-109.23
776.028	85.33
776.215	1.37
776.402	48.47
776.59	-12.97
776.777	-31.4
776.964	-55.98
777.151	152.91
777.338	-66.22
777.526	-64.17
777.713	3.41
777.9	-8.87
778.087	-127.66
778.274	79.19
778.461	11.61
778.649	68.95
778.836	-31.4
779.023	42.32
779.21	11.61
779.397	17.75
779.584	21.84
779.771	-4.78
779.958	-37.55
780.145	62.8
780.332	-84.65
780.519	-68.27
780.706	36.18
780.893	5.46
781.08	-31.4
781.267	38.23
781.454	73.04
781.641	-8.87
781.828	93.52
782.015	48.47
782.202	-21.16
782.388	-10.92
782.575	-51.88
782.762	-29.35
782.949	-25.26
783.136	23.89
783.323	56.66
783.509	17.75
783.696	-137.9
783.883	3.41
784.07	60.76
784.257	62.8
784.443	44.37
784.63	23.89
784.817	103.76
785.004	-29.35
785.19	-39.59
785.377	-84.65
785.564	-51.88
785.75	40.28
785.937	68.95
786.124	-96.94
786.31	-76.46
786.497	-6.83
786.683	85.33
786.87	-33.45
787.057	-19.11
787.243	-45.74
787.43	-123.56
787.616	-55.98
787.803	17.75
787.989	58.71
788.176	71
788.362	-62.12
788.549	-6.83
788.735	-41.64
788.922	58.71
789.108	58.71
789.295	17.75
789.481	54.61
789.668	-15.02
789.854	-45.74
790.04	42.32
790.227	34.13
790.413	-70.31
790.599	46.42
790.786	13.65
790.972	44.37
791.158	40.28
791.345	-17.07
791.531	19.8
791.717	32.08
791.904	58.71
792.09	54.61
792.276	56.66
792.462	-27.31
792.649	118.1
792.835	-2.73
793.021	5.46
793.207	1.37
793.393	3.41
793.58	32.08
793.766	17.75
793.952	-37.55
794.138	60.76
794.324	-0.68
794.51	1.37
794.696	15.7
794.882	48.47
795.069	21.84
795.255	23.89
795.441	50.52
795.627	-41.64
795.813	97.62
795.999	15.7
796.185	-27.31
796.371	23.89
796.557	-43.69
796.743	50.52
796.929	87.38
797.115	-43.69
797.3	32.08
797.486	-12.97
797.672	-15.02
797.858	7.51
798.044	-60.07
798.23	11.61
798.416	81.24
798.602	-86.7
798.788	5.46
798.973	-101.03
799.159	-80.55
799.345	-17.07
799.531	-27.31
799.717	71
799.902	-23.21
800.088	5.46
800.274	-19.11
800.46	66.9
800.645	-41.64
800.831	-21.16
801.017	-0.68
801.202	-23.21
801.388	-41.64
801.574	17.75
801.759	-66.22
801.945	1.37
802.131	23.89
802.316	79.19
802.502	-23.21
802.687	-25.26
802.873	5.46
803.058	-53.93
803.244	19.8
803.43	-8.87
803.615	44.37
803.801	-6.83
803.986	19.8
804.172	-41.64
804.357	-15.02
804.543	17.75
804.728	15.7
804.913	36.18
805.099	-35.5
805.284	-31.4
805.47	34.13
805.655	7.51
805.84	-141.99
806.026	15.7
806.211	-31.4
806.397	-96.94
806.582	23.89
806.767	40.28
806.953	34.13
807.138	13.65
807.323	-37.55
807.508	34.13
807.694	75.09
807.879	-78.51
808.064	52.56
808.249	83.28
808.435	64.85
808.62	13.65
808.805	5.46
808.99	-17.07
809.175	-58.03
809.361	-17.07
809.546	-8.87
809.731	152.91
809.916	75.09
810.101	-23.21
810.286	77.14
810.471	-17.07
810.656	9.56
810.841	-58.03
811.026	3.41
811.211	-10.92
811.396	79.19
811.581	40.28
811.766	-23.21
811.951	116.05
812.136	91.48
812.321	7.51
812.506	-41.64
812.691	-19.11
812.876	11.61
813.061	-27.31
813.246	-19.11
813.431	81.24
813.616	42.32
813.801	-2.73
813.986	21.85
814.17	79.19
814.355	-119.46
814.54	-15.02
814.725	-15.02
814.91	-105.13
815.094	-23.21
815.279	58.71
815.464	-4.78
815.649	-123.56
815.833	-2.73
816.018	36.18
816.203	5.46
816.388	-60.07
816.572	-8.87
816.757	-39.59
816.942	38.23
817.126	21.85
817.311	25.94
817.496	-117.42
817.68	107.86
817.865	40.28
818.049	-115.37
818.234	-19.11
818.419	3.41
818.603	-76.46
818.788	-27.31
818.972	-4.78
819.157	134.48
819.341	-29.35
819.526	111.96
819.71	7.51
819.895	-78.51
820.079	64.85
820.264	54.61
820.448	34.13
820.633	-19.11
820.817	118.1
821.001	87.38
821.186	-6.83
821.37	1.37
821.554	-41.64
821.739	-43.69
821.923	-144.04
822.108	128.34
822.292	-27.31
822.476	-0.68
822.66	71
822.845	-31.4
823.029	-29.35
823.213	-45.74
823.398	71
823.582	52.56
823.766	15.7
823.95	21.84
824.134	-86.7
824.319	-41.64
824.503	-47.79
824.687	32.08
824.871	-21.16
825.055	52.56
825.239	66.9
825.423	-62.12
825.608	-86.7
825.792	-96.94
825.976	-27.31
826.16	1.37
826.344	1.37
826.528	-107.18
826.712	-4.78
826.896	-37.55
827.08	-27.31
827.264	-58.03
827.448	83.28
827.632	-70.31
827.816	15.7
828	109.91
828.184	52.56
828.368	-29.35
828.552	50.52
828.736	-88.75
828.919	17.75
829.103	109.91
829.287	101.72
829.471	-47.79
829.655	-70.31
829.839	130.39
830.023	21.84
830.206	64.85
830.39	-2.73
830.574	-19.11
830.758	-17.07
830.941	5.46
831.125	7.51
831.309	15.7
831.493	1.37
831.676	-2.73
831.86	-15.02
832.044	54.61
832.227	-31.4
832.411	-2.73
832.595	-41.64
832.778	89.43
832.962	66.9
833.146	25.94
833.329	-25.26
833.513	-88.75
833.696	-25.26
833.88	-80.55
834.064	-43.69
834.247	144.72
834.431	-94.89
834.614	71
834.798	13.65
834.981	27.99
835.165	11.61
835.348	-19.11
835.532	163.15
835.715	64.85
835.898	75.09
836.082	-80.55
836.265	-41.64
836.449	75.09
836.632	-62.12
836.815	36.18
836.999	27.99
837.182	-25.26
837.365	-78.51
837.549	15.7
837.732	-15.02
837.915	19.8
838.099	32.08
838.282	21.84
838.465	64.85
838.648	103.76
838.832	-47.79
839.015	1.37
839.198	-10.92
839.381	23.89
839.565	-41.64
839.748	107.86
839.931	40.28
840.114	-43.69
840.297	66.9
840.48	73.04
840.663	-101.03
840.847	42.32
841.03	50.52
841.213	25.94
841.396	17.75
841.579	87.38
841.762	95.57
841.945	-4.78
842.128	23.89
842.311	-47.79
842.494	-43.69
842.677	-64.17
842.86	-45.74
843.043	-2.73
843.226	103.76
843.409	21.85
843.592	75.09
843.775	48.47
843.958	15.7
844.141	15.7
844.323	68.95
844.506	-66.22
844.689	23.89
844.872	85.33
845.055	-2.73
845.238	-66.22
845.42	-8.87
845.603	-6.83
845.786	-33.45
845.969	99.67
846.152	114
846.334	-19.11
846.517	27.99
846.7	3.41
846.883	38.23
847.065	-31.4
847.248	-29.35
847.431	13.65
847.613	-76.46
847.796	159.06
847.979	13.65
848.161	-49.83
848.344	-45.74
848.526	44.37
848.709	-23.21
848.892	5.46
849.074	-2.73
849.257	-41.64
849.439	23.89
849.622	64.85
849.804	-62.12
849.987	-15.02
850.169	-12.97
850.352	5.46
850.534	-58.03
850.717	48.47
850.899	42.32
851.082	38.23
851.264	107.86
851.446	58.71
851.629	-4.78
851.811	13.65
851.994	32.08
852.176	21.85
852.358	21.85
852.541	3.41
852.723	-25.26
852.905	-39.59
853.088	-98.99
853.27	52.56
853.452	50.52
853.635	-43.69
853.817	-62.12
853.999	95.57
854.181	21.85
854.363	48.47
854.546	58.71
854.728	32.08
854.91	152.91
855.092	9.56
855.274	-27.31
855.457	-76.46
855.639	-72.36
855.821	42.32
856.003	85.33
856.185	-53.93
856.367	-23.21
856.549	91.48
856.731	-8.87
856.913	89.43
857.095	83.28
857.277	126.29
857.459	34.13
857.641	11.61
857.823	-47.79
858.005	-17.07
858.187	23.89
858.369	19.8
858.551	-15.02
858.733	79.19
858.915	38.23
859.097	5.46
859.279	-62.12
859.461	101.72
859.643	-23.21
859.824	87.38
860.006	44.37
860.188	-19.11
860.37	54.61
860.552	-12.97
860.734	75.09
860.915	7.51
861.097	27.99
861.279	-4.78
861.461	79.19
861.642	-12.97
861.824	46.42
862.006	-109.22
862.188	95.57
862.369	-12.97
862.551	-76.46
862.733	-35.5
862.914	-68.27
863.096	7.51
863.278	36.18
863.459	-33.45
863.641	40.28
863.822	58.71
864.004	-90.79
864.185	-2.73
864.367	-53.93
864.549	62.8
864.73	30.04
864.912	23.89
865.093	-47.79
865.275	-33.45
865.456	1.37
865.638	3.41
865.819	-70.31
866.001	-68.27
866.182	-76.46
866.363	-2.73
866.545	1.37
866.726	-64.17
866.908	83.28
867.089	50.52
867.27	54.61
867.452	50.52
867.633	-88.75
867.814	44.37
867.996	-49.83
868.177	42.32
868.358	-6.83
868.54	-115.37
868.721	-23.21
868.902	56.66
869.083	-12.97
869.265	89.43
869.446	32.08
869.627	-8.87
869.808	-70.31
869.989	-41.64
870.171	19.8
870.352	-12.97
870.533	-58.03
870.714	15.7
870.895	17.75
871.076	109.91
871.257	-29.35
871.438	-27.31
871.619	-37.55
871.801	62.8
871.982	34.13
872.163	-12.97
872.344	21.85
872.525	-58.03
872.706	11.61
872.887	79.19
873.068	64.85
873.249	42.32
873.43	-113.32
873.61	68.95
873.791	95.57
873.972	-6.83
874.153	-2.73
874.334	-58.03
874.515	56.66
874.696	48.47
874.877	-39.59
875.058	52.56
875.238	-84.65
875.419	36.18
875.6	-49.83
875.781	-51.88
875.962	50.52
876.142	105.81
876.323	-0.68
876.504	105.81
876.685	-4.78
876.865	-86.7
877.046	3.41
877.227	3.41
877.407	-12.97
877.588	52.56
877.769	32.08
877.949	30.04
878.13	-68.27
878.311	109.91
878.491	-53.93
878.672	120.15
878.853	-98.99
879.033	-6.83
879.214	-8.87
879.394	-74.41
879.575	-82.6
879.755	7.51
879.936	9.56
880.116	62.8
880.297	-68.27
880.477	54.61
880.658	-76.46
880.838	-47.79
881.019	17.75
881.199	42.32
881.38	23.89
881.56	32.08
881.74	-119.46
881.921	-4.78
882.101	32.08
882.281	-17.07
882.462	52.56
882.642	-35.5
882.822	-8.87
883.003	-117.42
883.183	34.13
883.363	-15.02
883.544	-17.07
883.724	-6.83
883.904	-21.16
884.084	5.46
884.265	93.52
884.445	27.99
884.625	5.46
884.805	-25.26
884.985	3.41
885.166	42.32
885.346	-10.92
885.526	44.37
885.706	32.08
885.886	21.85
886.066	-68.27
886.246	15.7
886.426	-2.73
886.606	21.84
886.787	-12.97
886.967	42.32
887.147	23.89
887.327	23.89
887.507	66.9
887.687	25.94
887.867	-2.73
888.047	-98.99
888.227	42.32
888.406	200.02
888.586	-39.59
888.766	-23.21
888.946	-27.31
889.126	-70.31
889.306	21.85
889.486	58.71
889.666	73.04
889.846	36.18
890.025	118.1
890.205	-88.75
890.385	46.42
890.565	66.9
890.745	30.04
890.924	-2.73
891.104	-10.92
891.284	46.42
891.464	-8.87
891.643	107.86
891.823	-0.68
892.003	120.15
892.183	-90.79
892.362	-60.07
892.542	5.46
892.722	46.42
892.901	25.94
893.081	71
893.26	-64.17
893.44	-10.92
893.62	75.09
893.799	-76.46
893.979	99.67
894.158	-33.45
894.338	19.8
894.517	-43.69
894.697	134.48
894.877	44.37
895.056	13.65
895.236	48.47
895.415	-33.45
895.594	81.24
895.774	107.86
895.953	81.24
896.133	15.7
896.312	3.41
896.492	-72.36
896.671	-25.26
896.85	30.04
897.03	27.99
897.209	-2.73
897.388	-6.83
897.568	23.89
897.747	42.32
897.926	19.8
898.106	-129.7
898.285	-12.97
898.464	11.61
898.643	-47.79
898.823	27.99
899.002	5.46
899.181	42.32
899.36	36.18
899.54	77.14
899.719	-80.55
899.898	-21.16
900.077	-33.45
900.256	7.51
900.435	44.37
900.614	32.08
900.794	27.99
900.973	62.8
901.152	23.89
901.331	-15.02
901.51	-64.17
901.689	23.89
901.868	46.42
902.047	103.76
902.226	13.65
902.405	-23.21
902.584	-23.21
902.763	71
902.942	11.61
903.121	-49.83
903.3	-101.03
903.479	19.8
903.658	5.46
903.837	30.04
904.015	146.77
904.194	3.41
904.373	-27.31
904.552	-37.55
904.731	-62.12
904.91	-0.68
905.089	-33.45
905.267	30.04
905.446	-15.02
905.625	-0.68
905.804	118.1
905.982	30.04
906.161	-37.55
906.34	-2.73
906.519	-10.92
906.697	-21.16
906.876	-125.61
907.055	-78.51
907.233	40.28
907.412	93.52
907.591	-47.79
907.769	46.42
907.948	60.76
908.127	40.28
908.305	21.85
908.484	-39.59
908.662	-4.78
908.841	-51.88
909.019	9.56
909.198	-4.78
909.377	19.8
909.555	-47.79
909.734	27.99
909.912	50.52
910.09	-68.27
910.269	79.19
910.447	-0.68
910.626	44.37
910.804	-74.41
910.983	52.56
911.161	-64.17
911.339	-45.74
911.518	93.52
911.696	81.24
911.875	-0.68
912.053	-62.12
912.231	-78.51
912.41	58.71
912.588	-35.5
912.766	7.51
912.944	64.85
913.123	126.29
913.301	-82.6
913.479	-47.79
913.657	11.61
913.836	27.99
914.014	-70.31
914.192	36.18
914.37	-25.26
914.548	36.18
914.727	7.51
914.905	15.7
915.083	-0.68
915.261	-27.31
915.439	-37.55
915.617	-10.92
915.795	-70.31
915.973	-33.45
916.151	44.37
916.329	95.57
916.508	27.99
916.686	15.7
916.864	13.65
917.042	73.04
917.22	-139.94
917.398	-21.16
917.575	52.56
917.753	-60.07
917.931	-115.37
918.109	79.19
918.287	9.56
918.465	5.46
918.643	-53.93
918.821	83.28
918.999	-37.55
919.177	52.56
919.354	-94.89
919.532	1.37
919.71	-12.97
919.888	79.19
920.066	-115.37
920.243	-37.55
920.421	36.18
920.599	66.9
920.777	73.04
920.954	118.1
921.132	-51.88
921.31	-60.07
921.488	-6.83
921.665	97.62
921.843	-27.31
922.021	-68.27
922.198	56.66
922.376	-43.69
922.553	105.81
922.731	5.46
922.909	-12.97
923.086	-58.03
923.264	-12.97
923.441	-58.03
923.619	-68.27
923.796	54.61
923.974	11.61
924.152	-109.23
924.329	-45.74
924.507	-8.87
924.684	-10.92
924.861	3.41
925.039	99.67
925.216	23.89
925.394	-45.74
925.571	23.89
925.749	-12.97
925.926	-29.35
926.103	-12.97
926.281	-55.98
926.458	25.94
926.635	114
926.813	46.42
926.99	32.08
927.167	5.46
927.345	58.71
927.522	-64.17
927.699	77.14
927.876	15.7
928.054	73.04
928.231	93.52
928.408	30.04
928.585	-21.16
928.763	-60.07
928.94	-49.83
929.117	-2.73
929.294	7.51
929.471	11.61
929.648	3.41
929.825	66.9
930.003	62.8
930.18	-49.83
930.357	42.32
930.534	-125.61
930.711	17.75
930.888	58.71
931.065	81.24
931.242	99.67
931.419	19.8
931.596	32.08
931.773	-17.07
931.95	32.08
932.127	36.18
932.304	3.41
932.481	15.7
932.658	62.8
932.835	17.75
933.011	54.61
933.188	-2.73
933.365	68.95
933.542	-0.68
933.719	23.89
933.896	77.14
934.073	11.61
934.249	-4.78
934.426	-60.07
934.603	23.89
934.78	89.43
934.957	-43.69
935.133	38.23
935.31	15.7
935.487	-74.41
935.664	17.75
935.84	32.08
936.017	58.71
936.194	38.23
936.37	-39.59
936.547	-29.35
936.724	52.56
936.9	-45.74
937.077	40.28
937.253	-0.68
937.43	-90.79
937.607	25.94
937.783	34.13
937.96	-21.16
938.136	19.8
938.313	-23.21
938.489	56.66
938.666	32.08
938.842	62.8
939.019	-17.07
939.195	-21.16
939.372	122.2
939.548	-51.88
939.725	-19.11
939.901	-31.4
940.077	1.37
940.254	-0.68
940.43	-51.88
940.607	75.09
940.783	1.37
940.959	114
941.136	21.84
941.312	85.33
941.488	99.67
941.665	9.56
941.841	48.47
942.017	-74.41
942.193	56.66
942.37	38.23
942.546	-29.35
942.722	3.41
942.898	52.56
943.074	48.47
943.251	-166.57
943.427	-4.78
943.603	-15.02
943.779	1.37
943.955	3.41
944.131	-35.5
944.308	-41.64
944.484	-74.41
944.66	-37.55
944.836	27.99
945.012	64.85
945.188	25.94
945.364	-31.4
945.54	-4.78
945.716	-19.11
945.892	109.91
946.068	-39.59
946.244	34.13
946.42	-17.07
946.596	-64.17
946.772	81.24
946.948	-82.6
947.124	-76.46
947.3	-60.07
947.475	-72.36
947.651	152.91
947.827	27.99
948.003	79.19
948.179	40.28
948.355	-60.07
948.531	64.85
948.706	13.65
948.882	95.57
949.058	25.94
949.234	17.75
949.409	-84.65
949.585	103.76
949.761	56.66
949.937	38.23
950.112	34.13
950.288	-25.26
950.464	-25.26
950.639	-33.45
950.815	68.95
950.991	21.84
951.166	-19.11
951.342	-15.02
951.518	32.08
951.693	62.8
951.869	-66.22
952.044	130.39
952.22	142.68
952.395	-21.16
952.571	-21.16
952.747	5.46
952.922	30.04
953.098	-90.79
953.273	-47.79
953.448	-27.31
953.624	21.84
953.799	99.67
953.975	-29.35
954.15	-21.16
954.326	-47.79
954.501	44.37
954.676	11.61
954.852	-41.64
955.027	-4.78
955.203	38.23
955.378	-33.45
955.553	-41.64
955.729	30.04
955.904	-10.92
956.079	91.48
956.254	-27.31
956.43	-96.94
956.605	46.42
956.78	-45.74
956.955	87.38
957.131	11.61
957.306	3.41
957.481	-17.07
957.656	-25.26
957.831	-29.35
958.007	73.04
958.182	-35.5
958.357	-25.26
958.532	19.8
958.707	54.61
958.882	-17.07
959.057	58.71
959.232	-31.4
959.407	-33.45
959.582	30.04
959.757	-51.88
959.932	9.56
960.107	-8.87
960.282	44.37
960.457	50.52
960.632	23.89
960.807	-49.83
960.982	9.56
961.157	9.56
961.332	-0.68
961.507	-15.02
961.682	-29.35
961.857	83.28
962.032	48.47
962.206	23.89
962.381	27.99
962.556	-121.51
962.731	-35.5
962.906	-6.83
963.081	44.37
963.255	34.13
963.43	34.13
963.605	-0.68
963.78	-58.03
963.954	17.75
964.129	77.14
964.304	52.56
964.479	-21.16
964.653	-27.31
964.828	-74.41
965.003	30.04
965.177	79.19
965.352	-15.02
965.526	-55.98
965.701	30.04
965.876	32.08
966.05	-53.93
966.225	42.32
966.399	-39.59
966.574	-49.83
966.748	-4.78
966.923	3.41
967.098	89.43
967.272	-37.55
967.446	23.89
967.621	62.8
967.795	114
967.97	-6.83
968.144	75.09
968.319	19.8
968.493	77.14
968.668	-10.92
968.842	91.48
969.016	-21.16
969.191	11.61
969.365	-41.64
969.539	-47.79
969.714	89.43
969.888	-39.59
970.062	-37.55
970.237	1.37
970.411	17.75
970.585	54.61
970.759	25.94
970.934	-19.11
971.108	5.46
971.282	-12.97
971.456	36.18
971.63	46.42
971.805	-60.07
971.979	42.32
972.153	-19.11
972.327	42.32
972.501	-6.83
972.675	21.84
972.849	77.14
973.024	-23.21
973.198	46.42
973.372	40.28
973.546	19.8
973.72	48.47
973.894	-45.74
974.068	-27.31
974.242	21.85
974.416	-37.55
974.59	62.8
974.764	9.56
974.938	25.94
975.112	91.48
975.286	-21.16
975.46	-76.46
975.633	40.28
975.807	130.39
975.981	-23.21
976.155	-33.45
976.329	-55.98
976.503	-17.07
976.677	-131.75
976.85	-64.17
977.024	95.57
977.198	-72.36
977.372	3.41
977.546	-37.55
977.719	-109.22
977.893	19.8
978.067	-21.16
978.241	-107.18
978.414	15.7
978.588	1.37
978.762	-133.8
978.935	64.85
979.109	89.43
979.283	27.99
979.456	-25.26
979.63	9.56
979.804	-33.45
979.977	-82.6
980.151	-27.31
980.324	25.94
980.498	48.47
980.671	27.99
980.845	9.56
981.018	83.28
981.192	-45.74
981.365	71
981.539	85.33
981.712	44.37
981.886	-4.78
982.059	3.41
982.233	66.9
982.406	40.28
982.58	-64.17
982.753	21.85
982.926	3.41
983.1	-17.07
983.273	19.8
983.446	-0.68
983.62	52.56
983.793	46.42
983.966	-164.52
984.14	-21.16
984.313	17.75
984.486	60.76
984.66	25.94
984.833	44.37
985.006	-17.07
985.179	25.94
985.352	17.75
985.526	17.75
985.699	81.24
985.872	-27.31
986.045	87.38
986.218	-58.03
986.391	19.8
986.565	-10.92
986.738	23.89
986.911	-72.36
987.084	-8.87
987.257	-78.51
987.43	-35.5
987.603	-25.26
987.776	-111.27
987.949	-21.16
988.122	5.46
988.295	-17.07
988.468	-25.26
988.641	48.47
988.814	-31.4
988.987	-33.45
989.16	36.18
989.333	11.61
989.506	77.14
989.679	48.47
989.852	-4.78
990.025	5.46
990.197	46.42
990.37	-68.27
990.543	103.76
990.716	-4.78
990.889	-27.31
991.062	11.61
991.234	-0.68
991.407	93.52
991.58	25.94
991.753	52.56
991.925	-103.08
992.098	17.75
992.271	-33.45
992.444	34.13
992.616	30.04
992.789	87.38
992.962	3.41
993.134	68.95
993.307	34.13
993.479	-49.83
993.652	-41.64
993.825	13.65
993.997	15.7
994.17	64.85
994.342	-27.31
994.515	34.13
994.688	-111.27
994.86	89.43
995.033	5.46
995.205	15.7
995.378	1.37
995.55	58.71
995.723	9.56
995.895	38.23
996.067	-64.17
996.24	64.85
996.412	25.94
996.585	-2.73
996.757	48.47
996.929	42.32
997.102	50.52
997.274	5.46
997.447	-29.35
997.619	60.76
997.791	-12.97
997.964	17.75
998.136	79.19
998.308	56.66
998.48	-60.07
998.653	7.51
998.825	-10.92
998.997	-2.73
999.169	-29.35
999.342	23.89
999.514	62.8
999.686	81.24
999.858	-31.4
1000.03	38.23
1000.202	36.18
1000.374	-19.11
1000.547	-19.11
1000.719	-94.89
1000.891	44.37
1001.063	79.19
1001.235	-29.35
1001.407	-74.41
1001.579	38.23
1001.751	-29.35
1001.923	5.46
1002.095	42.32
1002.267	97.62
1002.439	103.76
1002.611	40.28
1002.783	-29.35
1002.955	13.65
1003.127	50.52
1003.299	42.32
1003.471	44.37
1003.643	-150.18
1003.815	3.41
1003.986	-125.61
1004.158	46.42
1004.33	-60.07
1004.502	-78.51
1004.674	-41.64
1004.846	-15.02
1005.017	30.04
1005.189	25.94
1005.361	36.18
1005.533	-37.55
1005.704	97.62
1005.876	-53.93
1006.048	1.37
1006.22	7.51
1006.391	-78.51
1006.563	25.94
1006.735	114
1006.906	-10.92
1007.078	-53.93
1007.25	66.9
1007.421	23.89
1007.593	-0.68
1007.764	23.89
1007.936	64.85
1008.108	30.04
1008.279	21.85
1008.451	11.61
1008.622	13.65
1008.794	-43.69
1008.965	87.38
1009.137	-10.92
1009.308	52.56
1009.48	-29.35
1009.651	52.56
1009.823	-78.51
1009.994	38.23
1010.165	-4.78
1010.337	-15.02
1010.508	21.85
1010.68	-123.56
1010.851	54.61
1011.022	11.61
1011.194	-49.83
1011.365	-2.73
1011.536	17.75
1011.708	30.04
1011.879	-47.79
1012.05	-35.5
1012.222	-60.07
1012.393	3.41
1012.564	-129.7
1012.735	34.13
1012.906	-25.26
1013.078	17.75
1013.249	-58.03
1013.42	99.67
1013.591	-53.93
1013.762	11.61
1013.934	-49.83
1014.105	21.84
1014.276	-29.35
1014.447	-92.84
1014.618	25.94
1014.789	36.18
1014.96	40.28
1015.131	-127.66
1015.302	87.38
1015.473	81.24
1015.644	-12.97
1015.815	-66.22
1015.986	-43.69
1016.157	107.86
1016.328	-66.22
1016.499	46.42
1016.67	13.65
1016.841	62.8
1017.012	62.8
1017.183	-47.79
1017.354	79.19
1017.525	95.57
1017.696	9.56
1017.867	-12.97
1018.037	44.37
1018.208	3.41
1018.379	-4.78
1018.55	-15.02
1018.721	21.85
1018.891	-49.83
1019.062	42.32
1019.233	-43.69
1019.404	9.56
1019.574	48.47
1019.745	11.61
1019.916	50.52
1020.087	54.61
1020.257	-72.36
1020.428	-43.69
1020.599	64.85
1020.769	62.8
1020.94	40.28
1021.11	-123.56
1021.281	-10.92
1021.452	75.09
1021.622	3.41
1021.793	13.65
1021.963	-4.78
1022.134	-43.69
1022.305	-8.87
1022.475	-84.65
1022.646	60.76
1022.816	13.65
1022.987	36.18
1023.157	36.18
1023.327	23.89
1023.498	-55.98
1023.668	-27.31
1023.839	44.37
1024.009	34.13
1024.18	-84.65
1024.35	9.56
1024.52	3.41
1024.691	64.85
1024.861	-60.07
1025.031	7.51
1025.202	48.47
1025.372	-82.6
1025.542	-39.59
1025.713	-10.92
1025.883	13.65
1026.053	3.41
1026.223	-4.78
1026.394	-25.26
1026.564	-70.31
1026.734	27.99
1026.904	-25.26
1027.074	42.32
1027.245	38.23
1027.415	19.8
1027.585	7.51
1027.755	56.66
1027.925	-113.32
1028.095	116.05
1028.265	-41.64
1028.435	89.43
1028.606	23.89
1028.776	25.94
1028.946	36.18
1029.116	9.56
1029.286	-43.69
1029.456	-62.12
1029.626	-58.03
1029.796	71
1029.966	-98.99
1030.136	17.75
1030.306	62.8
1030.475	-66.22
1030.645	17.75
1030.815	11.61
1030.985	25.94
1031.155	54.61
1031.325	-35.5
1031.495	-51.88
1031.665	7.51
1031.835	34.13
1032.004	60.76
1032.174	27.99
1032.344	-0.68
1032.514	75.09
1032.684	17.75
1032.853	36.18
1033.023	25.94
1033.193	-64.17
1033.362	-70.31
1033.532	-74.41
1033.702	66.9
1033.872	-2.73
1034.041	-2.73
1034.211	-55.98
1034.381	97.62
1034.55	15.7
1034.72	-55.98
1034.889	-23.21
1035.059	42.32
1035.229	-19.11
1035.398	-98.99
1035.568	87.38
1035.737	-29.35
1035.907	77.14
1036.076	64.85
1036.246	-84.65
1036.415	-8.87
1036.585	11.61
1036.754	-23.21
1036.924	1.37
1037.093	-17.07
1037.263	58.71
1037.432	17.75
1037.601	-6.83
1037.771	44.37
1037.94	7.51
1038.11	81.24
1038.279	-25.26
1038.448	81.24
1038.618	-27.31
1038.787	38.23
1038.956	13.65
1039.126	-10.92
1039.295	66.9
1039.464	27.99
1039.633	-76.46
1039.803	-37.55
1039.972	87.38
1040.141	17.75
1040.31	99.67
1040.479	-80.55
1040.649	-35.5
1040.818	50.52
1040.987	109.91
1041.156	56.66
1041.325	-41.64
1041.494	50.52
1041.663	-35.5
1041.833	13.65
1042.002	-45.74
1042.171	-33.45
1042.34	-49.83
1042.509	17.75
1042.678	7.51
