Data from LSP64_S13_Subt4_17-18-13-784.txt Node
Date: Wed Aug 09 17:18:13 EDT 2023
User: Emmanuel
Spectrometer: USB4A00615
Scans to average: 1
Trigger mode: 1
Integration Time (sec): 8.000000E-3
Electric dark correction enabled: true
Boxcar width: 0
XAxis mode: Wavelengths
Number of Pixels in Spectrum: 3648
>>>>>Begin Spectral Data<<<<<
346.606	-64.17
346.818	-64.17
347.029	-64.17
347.241	-29.35
347.452	25.94
347.664	3.41
347.876	-76.46
348.087	71
348.299	21.84
348.51	5.46
348.722	-12.97
348.933	30.04
349.145	68.95
349.356	11.61
349.568	1.37
349.779	-25.26
349.991	-98.99
350.202	-66.22
350.414	-6.83
350.625	-10.92
350.836	-29.35
351.048	-6.83
351.259	-78.51
351.471	-62.12
351.682	-27.31
351.893	34.13
352.105	89.43
352.316	-8.87
352.527	-68.27
352.739	23.89
352.95	23.89
353.161	-53.93
353.372	-103.08
353.584	17.75
353.795	-31.4
354.006	120.15
354.217	-6.83
354.429	-109.23
354.64	-6.83
354.851	-51.88
355.062	40.28
355.274	-35.5
355.485	-2.73
355.696	56.66
355.907	11.61
356.118	-68.27
356.329	-0.68
356.54	34.13
356.752	-33.45
356.963	66.9
357.174	-68.27
357.385	-8.87
357.596	25.94
357.807	-55.98
358.018	40.28
358.229	68.95
358.44	-35.5
358.651	-47.79
358.862	-55.98
359.073	-10.92
359.284	-4.78
359.495	15.7
359.706	-80.55
359.917	-60.07
360.128	25.94
360.339	-51.88
360.55	-33.45
360.761	-39.59
360.972	17.75
361.182	68.95
361.393	5.46
361.604	30.04
361.815	-31.4
362.026	25.94
362.237	7.51
362.447	-53.93
362.658	36.18
362.869	36.18
363.08	-133.8
363.291	58.71
363.501	38.23
363.712	-74.41
363.923	-53.93
364.134	-92.84
364.344	-51.88
364.555	-6.83
364.766	11.61
364.976	-41.64
365.187	-39.59
365.398	75.09
365.608	19.8
365.819	19.8
366.03	-29.35
366.24	-15.02
366.451	-74.41
366.662	75.09
366.872	-41.64
367.083	11.61
367.293	17.75
367.504	-45.74
367.714	-148.14
367.925	77.14
368.135	-8.87
368.346	32.08
368.557	-103.08
368.767	-94.89
368.977	7.51
369.188	-62.12
369.398	9.56
369.609	-33.45
369.819	-45.74
370.03	11.61
370.24	-82.6
370.451	-31.4
370.661	-4.78
370.871	-37.55
371.082	11.61
371.292	-60.07
371.502	3.41
371.713	56.66
371.923	-47.79
372.133	-19.11
372.344	1.37
372.554	-15.02
372.764	-129.7
372.975	23.89
373.185	5.46
373.395	-39.59
373.605	-0.68
373.816	15.7
374.026	-37.55
374.236	-29.35
374.446	54.61
374.656	-2.73
374.867	-51.88
375.077	-53.93
375.287	-6.83
375.497	13.65
375.707	9.56
375.917	-43.69
376.127	-4.78
376.338	58.71
376.548	83.28
376.758	17.75
376.968	-107.18
377.178	19.8
377.388	-86.7
377.598	99.67
377.808	-23.21
378.018	-10.92
378.228	32.08
378.438	-68.27
378.648	-43.69
378.858	-92.84
379.068	-15.02
379.278	66.9
379.488	-6.83
379.698	21.84
379.908	-68.27
380.118	-62.12
380.327	-76.46
380.537	27.99
380.747	-53.93
380.957	19.8
381.167	-10.92
381.377	-90.79
381.587	-19.11
381.796	-19.11
382.006	-33.45
382.216	27.99
382.426	-94.89
382.636	56.66
382.845	-15.02
383.055	7.51
383.265	5.46
383.475	-49.83
383.684	25.94
383.894	-12.97
384.104	7.51
384.313	-51.88
384.523	-15.02
384.733	48.47
384.942	48.47
385.152	36.18
385.362	-62.12
385.571	25.94
385.781	-68.27
385.991	-33.45
386.2	-68.27
386.41	-43.69
386.619	-37.55
386.829	71
387.038	-60.07
387.248	62.8
387.457	-15.02
387.667	-31.4
387.876	-12.97
388.086	-66.22
388.295	-51.88
388.505	-49.83
388.714	54.61
388.924	-25.26
389.133	48.47
389.343	161.11
389.552	-43.69
389.762	-12.97
389.971	54.61
390.18	-64.17
390.39	-0.68
390.599	-80.55
390.808	-123.56
391.018	-6.83
391.227	73.04
391.436	-84.65
391.646	-39.59
391.855	95.57
392.064	-98.99
392.274	11.61
392.483	-131.75
392.692	-78.51
392.901	-29.35
393.111	34.13
393.32	-76.46
393.529	83.28
393.738	36.18
393.947	-66.22
394.157	-111.27
394.366	-2.73
394.575	42.32
394.784	-8.87
394.993	-39.59
395.202	-76.46
395.411	30.04
395.62	3.41
395.83	-23.21
396.039	34.13
396.248	32.08
396.457	71
396.666	140.63
396.875	101.72
397.084	-82.6
397.293	3.41
397.502	-25.26
397.711	-0.68
397.92	21.84
398.129	-33.45
398.338	-6.83
398.547	21.84
398.756	-74.41
398.965	-21.16
399.174	13.65
399.382	-121.51
399.591	-60.07
399.8	-47.79
400.009	21.84
400.218	1.37
400.427	-84.65
400.636	-27.31
400.844	-66.22
401.053	5.46
401.262	13.65
401.471	-51.88
401.68	-162.47
401.888	17.75
402.097	38.23
402.306	-74.41
402.515	13.65
402.723	-43.69
402.932	54.61
403.141	7.51
403.35	-12.97
403.558	101.72
403.767	-141.99
403.976	-0.68
404.184	-78.51
404.393	36.18
404.602	-51.88
404.81	3.41
405.019	-35.5
405.227	-15.02
405.436	-74.41
405.645	46.42
405.853	-62.12
406.062	93.52
406.27	-25.26
406.479	-72.36
406.687	-21.16
406.896	-103.08
407.104	-74.41
407.313	56.66
407.521	-41.64
407.73	-4.78
407.938	46.42
408.147	-12.97
408.355	-88.75
408.563	23.89
408.772	-17.07
408.98	-84.65
409.189	64.85
409.397	-72.36
409.605	-86.7
409.814	-41.64
410.022	-15.02
410.23	-129.7
410.439	40.28
410.647	-135.85
410.855	-19.11
411.064	32.08
411.272	-39.59
411.48	-8.87
411.688	23.89
411.897	-51.88
412.105	-131.75
412.313	-21.16
412.521	11.61
412.73	44.37
412.938	71
413.146	3.41
413.354	75.09
413.562	-74.41
413.77	-121.51
413.979	-21.16
414.187	-94.89
414.395	19.8
414.603	-21.16
414.811	77.14
415.019	-172.71
415.227	71
415.435	-154.28
415.643	-66.22
415.851	-8.87
416.059	-76.46
416.267	-58.03
416.475	15.7
416.683	89.43
416.891	-47.79
417.099	46.42
417.307	-4.78
417.515	-35.5
417.723	-29.35
417.931	-39.59
418.139	-74.41
418.347	-33.45
418.555	-109.23
418.763	-17.07
418.971	-47.79
419.179	1.37
419.386	-74.41
419.594	-21.16
419.802	1.37
420.01	27.99
420.218	9.56
420.426	34.13
420.633	54.61
420.841	66.9
421.049	-21.16
421.257	-119.46
421.464	-29.35
421.672	13.65
421.88	-21.16
422.088	-25.26
422.295	34.13
422.503	38.23
422.711	66.9
422.918	-94.89
423.126	-31.4
423.334	-55.98
423.541	52.56
423.749	-66.22
423.956	-12.97
424.164	-43.69
424.372	-94.89
424.579	-31.4
424.787	-15.02
424.994	-12.97
425.202	-51.88
425.409	-0.68
425.617	30.04
425.824	-29.35
426.032	-41.64
426.239	32.08
426.447	11.61
426.654	-58.03
426.862	23.89
427.069	38.23
427.277	-15.02
427.484	-66.22
427.692	-43.69
427.899	-144.04
428.106	73.04
428.314	11.61
428.521	48.47
428.728	7.51
428.936	-39.59
429.143	-37.55
429.351	11.61
429.558	68.95
429.765	128.34
429.972	62.8
430.18	1.37
430.387	1.37
430.594	-62.12
430.801	64.85
431.009	73.04
431.216	-15.02
431.423	34.13
431.63	-6.83
431.838	83.28
432.045	-17.07
432.252	36.18
432.459	13.65
432.666	17.75
432.873	-88.75
433.081	21.84
433.288	-17.07
433.495	-45.74
433.702	13.65
433.909	-72.36
434.116	-51.88
434.323	42.32
434.53	-12.97
434.737	-25.26
434.944	-0.68
435.151	-33.45
435.358	-8.87
435.565	34.13
435.772	-29.35
435.979	54.61
436.186	21.84
436.393	-2.73
436.6	-10.92
436.807	-43.69
437.014	-84.65
437.221	-129.7
437.428	54.61
437.635	-37.55
437.841	11.61
438.048	46.42
438.255	9.56
438.462	-72.36
438.669	-105.13
438.876	-41.64
439.082	-2.73
439.289	56.66
439.496	21.84
439.703	-53.93
439.91	1.37
440.116	64.85
440.323	-25.26
440.53	23.89
440.737	-55.98
440.943	-113.32
441.15	-25.26
441.357	81.24
441.563	-37.55
441.77	13.65
441.977	-6.83
442.183	99.67
442.39	3.41
442.597	9.56
442.803	-105.13
443.01	-53.93
443.216	-15.02
443.423	30.04
443.63	-113.32
443.836	-55.98
444.043	32.08
444.249	17.75
444.456	-21.16
444.662	-25.26
444.869	62.8
445.075	30.04
445.282	36.18
445.488	17.75
445.695	-51.88
445.901	-76.46
446.107	91.48
446.314	48.47
446.52	-27.31
446.727	-129.7
446.933	15.7
447.139	42.32
447.346	-39.59
447.552	-29.35
447.759	-33.45
447.965	-80.55
448.171	-27.31
448.378	-15.02
448.584	11.61
448.79	-17.07
448.996	15.7
449.203	-45.74
449.409	-47.79
449.615	-4.78
449.821	91.48
450.028	52.56
450.234	13.65
450.44	17.75
450.646	75.09
450.852	107.86
451.059	7.51
451.265	48.47
451.471	9.56
451.677	-66.22
451.883	-72.36
452.089	48.47
452.295	-90.79
452.502	-37.55
452.708	36.18
452.914	13.65
453.12	40.28
453.326	-78.51
453.532	-55.98
453.738	-0.68
453.944	-2.73
454.15	-62.12
454.356	-58.03
454.562	25.94
454.768	130.39
454.974	-19.11
455.18	-80.55
455.386	68.95
455.592	-55.98
455.798	-23.21
456.003	-74.41
456.209	11.61
456.415	-17.07
456.621	27.99
456.827	-4.78
457.033	-27.31
457.239	-62.12
457.444	-55.98
457.65	7.51
457.856	36.18
458.062	9.56
458.268	101.72
458.473	52.56
458.679	-74.41
458.885	58.71
459.091	-29.35
459.296	-84.65
459.502	-39.59
459.708	64.85
459.914	-68.27
460.119	46.42
460.325	71
460.531	-12.97
460.736	116.05
460.942	52.56
461.147	-45.74
461.353	-45.74
461.559	68.95
461.764	-33.45
461.97	3.41
462.175	-74.41
462.381	68.95
462.587	-6.83
462.792	-31.4
462.998	30.04
463.203	-68.27
463.409	-49.83
463.614	11.61
463.82	11.61
464.025	52.56
464.231	-23.21
464.436	-6.83
464.641	58.71
464.847	-15.02
465.052	-64.17
465.258	48.47
465.463	-8.87
465.669	56.66
465.874	-62.12
466.079	95.57
466.285	-82.6
466.49	-84.65
466.695	-19.11
466.901	34.13
467.106	-49.83
467.311	-45.74
467.516	-84.65
467.722	-60.07
467.927	13.65
468.132	1.37
468.338	-58.03
468.543	-29.35
468.748	-0.68
468.953	-68.27
469.158	-25.26
469.364	-15.02
469.569	-78.51
469.774	-101.03
469.979	-0.68
470.184	-66.22
470.389	-33.45
470.594	-60.07
470.8	13.65
471.005	-144.04
471.21	75.09
471.415	13.65
471.62	25.94
471.825	75.09
472.03	-119.46
472.235	50.52
472.44	-62.12
472.645	3.41
472.85	73.04
473.055	-45.74
473.26	-10.92
473.465	1.37
473.67	9.56
473.875	-10.92
474.08	-80.55
474.285	-45.74
474.49	-37.55
474.695	-27.31
474.899	-19.11
475.104	-31.4
475.309	-76.46
475.514	-41.64
475.719	101.72
475.924	73.04
476.128	-23.21
476.333	48.47
476.538	-6.83
476.743	-33.45
476.948	-70.31
477.152	-105.13
477.357	48.47
477.562	146.77
477.767	3.41
477.971	68.95
478.176	-55.98
478.381	-49.83
478.585	34.13
478.79	-72.36
478.995	62.8
479.199	30.04
479.404	36.18
479.609	21.84
479.813	-6.83
480.018	46.42
480.223	27.99
480.427	-45.74
480.632	-12.97
480.836	71
481.041	-105.13
481.245	-45.74
481.45	89.43
481.654	-23.21
481.859	-86.7
482.063	-23.21
482.268	36.18
482.472	-37.55
482.677	32.08
482.881	91.48
483.086	58.71
483.29	50.52
483.495	-27.31
483.699	7.51
483.903	103.76
484.108	46.42
484.312	91.48
484.517	-33.45
484.721	-92.84
484.925	-37.55
485.13	-47.79
485.334	9.56
485.538	3.41
485.743	5.46
485.947	27.99
486.151	48.47
486.355	17.75
486.56	-21.16
486.764	7.51
486.968	-55.98
487.172	-2.73
487.377	-8.87
487.581	-19.11
487.785	-10.92
487.989	17.75
488.193	81.24
488.397	-43.69
488.602	-2.73
488.806	-111.27
489.01	-10.92
489.214	23.89
489.418	-8.87
489.622	-47.79
489.826	34.13
490.03	11.61
490.234	5.46
490.438	-19.11
490.642	-74.41
490.846	3.41
491.05	21.84
491.254	-72.36
491.458	34.13
491.662	44.37
491.866	-33.45
492.07	-35.5
492.274	77.14
492.478	56.66
492.682	79.19
492.886	32.08
493.09	-205.48
493.294	-103.08
493.498	97.62
493.701	-66.22
493.905	54.61
494.109	-53.93
494.313	-53.93
494.517	7.51
494.721	-0.68
494.924	-27.31
495.128	9.56
495.332	9.56
495.536	-47.79
495.739	3.41
495.943	-109.23
496.147	-70.31
496.351	7.51
496.554	-37.55
496.758	-66.22
496.962	-92.84
497.165	-21.16
497.369	-2.73
497.573	68.95
497.776	64.85
497.98	-113.32
498.184	62.8
498.387	-78.51
498.591	3.41
498.794	7.51
498.998	-0.68
499.202	23.89
499.405	-29.35
499.609	-64.17
499.812	-33.45
500.016	-62.12
500.219	34.13
500.423	58.71
500.626	32.08
500.83	-80.55
501.033	89.43
501.237	-80.55
501.44	118.1
501.643	-25.26
501.847	-25.26
502.05	44.37
502.254	1.37
502.457	-33.45
502.66	-35.5
502.864	32.08
503.067	-23.21
503.271	-35.5
503.474	-4.78
503.677	-49.83
503.88	-37.55
504.084	-58.03
504.287	27.99
504.49	-29.35
504.694	-12.97
504.897	34.13
505.1	87.38
505.303	-0.68
505.507	19.8
505.71	-58.03
505.913	-80.55
506.116	-94.89
506.319	56.66
506.522	56.66
506.726	30.04
506.929	19.8
507.132	13.65
507.335	-12.97
507.538	-62.12
507.741	52.56
507.944	-39.59
508.147	93.52
508.35	21.84
508.553	15.7
508.756	-41.64
508.959	-66.22
509.163	-53.93
509.366	-90.79
509.569	-2.73
509.771	-60.07
509.974	-74.41
510.177	48.47
510.38	3.41
510.583	46.42
510.786	1.37
510.989	34.13
511.192	-47.79
511.395	11.61
511.598	46.42
511.801	5.46
512.004	5.46
512.206	30.04
512.409	36.18
512.612	38.23
512.815	-37.55
513.018	-62.12
513.22	58.71
513.423	-66.22
513.626	-66.22
513.829	7.51
514.032	7.51
514.234	48.47
514.437	-62.12
514.64	-4.78
514.842	5.46
515.045	17.75
515.248	-68.27
515.45	-17.07
515.653	-23.21
515.856	-109.23
516.058	-25.26
516.261	46.42
516.464	50.52
516.666	5.46
516.869	9.56
517.071	-84.65
517.274	-107.18
517.477	34.13
517.679	-60.07
517.882	-41.64
518.084	-82.6
518.287	-33.45
518.489	9.56
518.692	13.65
518.894	11.61
519.097	-141.99
519.299	-15.02
519.501	46.42
519.704	13.65
519.906	-2.73
520.109	-68.27
520.311	36.18
520.514	73.04
520.716	23.89
520.918	-37.55
521.121	-2.73
521.323	-35.5
521.525	15.7
521.728	-29.35
521.93	25.94
522.132	44.37
522.335	73.04
522.537	17.75
522.739	-10.92
522.941	60.76
523.144	-105.13
523.346	38.23
523.548	23.89
523.75	-88.75
523.952	-25.26
524.155	120.15
524.357	-37.55
524.559	56.66
524.761	1.37
524.963	-23.21
525.165	-4.78
525.368	-43.69
525.57	-0.68
525.772	-12.97
525.974	-68.27
526.176	3.41
526.378	7.51
526.58	99.67
526.782	36.18
526.984	-4.78
527.186	-37.55
527.388	-80.55
527.59	-2.73
527.792	-80.55
527.994	-33.45
528.196	25.94
528.398	-72.36
528.6	111.96
528.802	-29.35
529.004	11.61
529.206	-0.68
529.408	36.18
529.609	23.89
529.811	56.66
530.013	109.91
530.215	-39.59
530.417	52.56
530.619	-103.08
530.821	27.99
531.022	54.61
531.224	-21.16
531.426	81.24
531.628	58.71
531.829	19.8
532.031	-94.89
532.233	9.56
532.435	-6.83
532.636	-131.75
532.838	-35.5
533.04	-27.31
533.241	9.56
533.443	87.38
533.645	-21.16
533.846	1.37
534.048	-21.16
534.25	-68.27
534.451	-15.02
534.653	21.84
534.855	-107.18
535.056	-33.45
535.258	44.37
535.459	-21.16
535.661	40.28
535.862	11.61
536.064	-29.35
536.265	-29.35
536.467	11.61
536.668	30.04
536.87	-66.22
537.071	-37.55
537.273	-137.9
537.474	-12.97
537.676	-66.22
537.877	44.37
538.078	-47.79
538.28	77.14
538.481	73.04
538.683	56.66
538.884	-68.27
539.085	-119.46
539.287	11.61
539.488	27.99
539.689	17.75
539.891	34.13
540.092	-39.59
540.293	15.7
540.495	34.13
540.696	-37.55
540.897	-2.73
541.098	-37.55
541.3	5.46
541.501	25.94
541.702	-31.4
541.903	103.76
542.104	62.8
542.306	-111.27
542.507	-2.73
542.708	-41.64
542.909	34.13
543.11	77.14
543.311	-6.83
543.512	79.19
543.713	11.61
543.915	-39.59
544.116	-80.55
544.317	-37.55
544.518	126.29
544.719	79.19
544.92	-8.87
545.121	-8.87
545.322	68.95
545.523	23.89
545.724	-33.45
545.925	25.94
546.126	25.94
546.327	95.57
546.528	73.04
546.729	-45.74
546.929	-94.89
547.13	-4.78
547.331	11.61
547.532	89.43
547.733	21.84
547.934	13.65
548.135	46.42
548.336	-29.35
548.536	42.32
548.737	81.24
548.938	109.91
549.139	-35.5
549.34	32.08
549.54	5.46
549.741	-37.55
549.942	44.37
550.143	-139.94
550.343	-19.11
550.544	97.62
550.745	-80.55
550.945	71
551.146	-6.83
551.347	-29.35
551.547	15.7
551.748	-8.87
551.949	46.42
552.149	3.41
552.35	73.04
552.551	1.37
552.751	93.52
552.952	-6.83
553.152	-72.36
553.353	-62.12
553.553	-21.16
553.754	21.84
553.954	-135.85
554.155	-47.79
554.356	-62.12
554.556	-12.97
554.756	-121.51
554.957	5.46
555.157	-10.92
555.358	140.63
555.558	-31.4
555.759	15.7
555.959	-60.07
556.159	-15.02
556.36	-19.11
556.56	5.46
556.761	-25.26
556.961	66.9
557.161	34.13
557.362	68.95
557.562	-35.5
557.762	-25.26
557.963	64.85
558.163	54.61
558.363	-60.07
558.563	-15.02
558.764	13.65
558.964	-10.92
559.164	48.47
559.364	-82.6
559.565	-45.74
559.765	-17.07
559.965	5.46
560.165	62.8
560.365	40.28
560.565	36.18
560.766	-37.55
560.966	-115.37
561.166	-25.26
561.366	-19.11
561.566	79.19
561.766	-68.27
561.966	-96.94
562.166	50.52
562.366	-6.83
562.566	-8.87
562.766	-12.97
562.966	-21.16
563.166	-119.46
563.366	-45.74
563.566	-27.31
563.766	-10.92
563.966	27.99
564.166	-47.79
564.366	36.18
564.566	7.51
564.766	15.7
564.966	-35.5
565.166	-141.99
565.366	-39.59
565.565	107.86
565.765	5.46
565.965	-35.5
566.165	-8.87
566.365	15.7
566.565	1.37
566.764	-66.22
566.964	-10.92
567.164	7.51
567.364	1.37
567.564	-109.23
567.763	-15.02
567.963	60.76
568.163	-33.45
568.362	56.66
568.562	111.96
568.762	-72.36
568.961	11.61
569.161	-62.12
569.361	-35.5
569.56	-2.73
569.76	60.76
569.96	38.23
570.159	-43.69
570.359	-189.1
570.558	15.7
570.758	1.37
570.958	56.66
571.157	-68.27
571.357	-6.83
571.556	62.8
571.756	-23.21
571.955	32.08
572.155	46.42
572.354	52.56
572.554	21.84
572.753	19.8
572.953	-31.4
573.152	-51.88
573.351	-47.79
573.551	-15.02
573.75	-55.98
573.95	-39.59
574.149	-37.55
574.348	-27.31
574.548	1.37
574.747	-68.27
574.946	5.46
575.146	-37.55
575.345	68.95
575.544	17.75
575.744	-123.56
575.943	-29.35
576.142	50.52
576.342	-39.59
576.541	27.99
576.74	-12.97
576.939	-96.94
577.138	-25.26
577.338	5.46
577.537	40.28
577.736	-23.21
577.935	46.42
578.134	-113.32
578.333	-27.31
578.533	52.56
578.732	-55.98
578.931	25.94
579.13	58.71
579.329	-86.7
579.528	-53.93
579.727	34.13
579.926	56.66
580.125	105.81
580.324	34.13
580.523	-23.21
580.722	-37.55
580.921	13.65
581.12	-94.89
581.319	68.95
581.518	-4.78
581.717	46.42
581.916	-53.93
582.115	-133.8
582.314	-62.12
582.513	15.7
582.712	48.47
582.911	-19.11
583.109	-141.99
583.308	23.89
583.507	13.65
583.706	-53.93
583.905	-66.22
584.104	-41.64
584.302	-72.36
584.501	-92.84
584.7	13.65
584.899	27.99
585.098	-94.89
585.296	-156.33
585.495	58.71
585.694	19.8
585.892	-58.03
586.091	-10.92
586.29	7.51
586.488	5.46
586.687	-64.17
586.886	-80.55
587.084	11.61
587.283	66.9
587.482	-80.55
587.68	122.2
587.879	-45.74
588.077	-66.22
588.276	9.56
588.475	15.7
588.673	-25.26
588.872	40.28
589.07	19.8
589.269	15.7
589.467	-92.84
589.666	-21.16
589.864	50.52
590.063	23.89
590.261	40.28
590.46	-82.6
590.658	36.18
590.857	-105.13
591.055	58.71
591.253	-70.31
591.452	21.84
591.65	-68.27
591.848	-105.13
592.047	17.75
592.245	-12.97
592.444	-45.74
592.642	32.08
592.84	27.99
593.038	-4.78
593.237	13.65
593.435	79.19
593.633	-41.64
593.832	-49.83
594.03	44.37
594.228	-41.64
594.426	3.41
594.624	-17.07
594.823	-21.16
595.021	-62.12
595.219	-35.5
595.417	13.65
595.615	-92.84
595.813	-82.6
596.012	-70.31
596.21	-64.17
596.408	54.61
596.606	27.99
596.804	-6.83
597.002	-76.46
597.2	7.51
597.398	-70.31
597.596	-94.89
597.794	13.65
597.992	36.18
598.19	27.99
598.388	40.28
598.586	-96.94
598.784	21.84
598.982	-41.64
599.18	44.37
599.378	5.46
599.576	44.37
599.774	11.61
599.972	36.18
600.17	-49.83
600.368	-60.07
600.565	11.61
600.763	-8.87
600.961	-90.79
601.159	-55.98
601.357	105.81
601.555	-0.68
601.752	-49.83
601.95	83.28
602.148	-10.92
602.346	-27.31
602.544	-21.16
602.741	-137.9
602.939	-121.51
603.137	154.96
603.334	-68.27
603.532	-33.45
603.73	13.65
603.927	3.41
604.125	-4.78
604.323	-31.4
604.52	23.89
604.718	9.56
604.916	75.09
605.113	-47.79
605.311	27.99
605.508	-66.22
605.706	-25.26
605.904	83.28
606.101	15.7
606.299	-21.16
606.496	32.08
606.694	-58.03
606.891	-21.16
607.089	7.51
607.286	19.8
607.484	71
607.681	36.18
607.879	-35.5
608.076	17.75
608.273	32.08
608.471	-29.35
608.668	-8.87
608.866	68.95
609.063	21.84
609.26	34.13
609.458	25.94
609.655	52.56
609.852	-39.59
610.05	-8.87
610.247	56.66
610.444	36.18
610.642	-12.97
610.839	-29.35
611.036	-82.6
611.233	-84.65
611.431	-72.36
611.628	-82.6
611.825	-25.26
612.022	60.76
612.22	34.13
612.417	-49.83
612.614	79.19
612.811	17.75
613.008	-41.64
613.205	-6.83
613.402	5.46
613.6	71
613.797	-31.4
613.994	13.65
614.191	-90.79
614.388	-27.31
614.585	-10.92
614.782	-84.65
614.979	-55.98
615.176	34.13
615.373	-31.4
615.57	48.47
615.767	-43.69
615.964	32.08
616.161	-21.16
616.358	-113.32
616.555	-62.12
616.752	46.42
616.949	-0.68
617.146	-68.27
617.343	-64.17
617.539	-82.6
617.736	27.99
617.933	-25.26
618.13	-94.89
618.327	-15.02
618.524	52.56
618.721	-23.21
618.917	46.42
619.114	5.46
619.311	7.51
619.508	-27.31
619.704	-76.46
619.901	-27.31
620.098	-15.02
620.295	-8.87
620.491	5.46
620.688	-113.32
620.885	17.75
621.081	-21.16
621.278	1.37
621.475	62.8
621.671	15.7
621.868	21.84
622.065	13.65
622.261	11.61
622.458	3.41
622.655	81.24
622.851	-62.12
623.048	-10.92
623.244	-88.75
623.441	-6.83
623.637	44.37
623.834	36.18
624.03	-19.11
624.227	-64.17
624.423	27.99
624.62	60.76
624.816	-19.11
625.013	-35.5
625.209	21.84
625.406	5.46
625.602	-41.64
625.798	-4.78
625.995	138.58
626.191	-51.88
626.388	-84.65
626.584	-53.93
626.78	81.24
626.977	-64.17
627.173	-41.64
627.369	-62.12
627.566	-58.03
627.762	1.37
627.958	-17.07
628.154	15.7
628.351	-10.92
628.547	-84.65
628.743	-29.35
628.939	-111.27
629.136	-78.51
629.332	13.65
629.528	-88.75
629.724	-62.12
629.92	23.89
630.116	50.52
630.313	-6.83
630.509	7.51
630.705	-41.64
630.901	-37.55
631.097	34.13
631.293	-70.31
631.489	27.99
631.685	56.66
631.881	-98.99
632.077	-17.07
632.273	38.23
632.469	-64.17
632.665	-80.55
632.861	-98.99
633.057	15.7
633.253	-86.7
633.449	-41.64
633.645	77.14
633.841	46.42
634.037	79.19
634.233	21.84
634.429	-66.22
634.625	21.84
634.821	-39.59
635.017	40.28
635.212	-41.64
635.408	-90.79
635.604	30.04
635.8	83.28
635.996	-55.98
636.191	-6.83
636.387	-29.35
636.583	17.75
636.779	-51.88
636.975	21.84
637.17	-90.79
637.366	3.41
637.562	-55.98
637.757	-80.55
637.953	27.99
638.149	-4.78
638.345	-4.78
638.54	-76.46
638.736	87.38
638.931	-119.46
639.127	17.75
639.323	-49.83
639.518	42.32
639.714	-105.13
639.909	-51.88
640.105	15.7
640.301	-47.79
640.496	7.51
640.692	-15.02
640.887	-17.07
641.083	-98.99
641.278	-62.12
641.474	25.94
641.669	-58.03
641.865	32.08
642.06	-45.74
642.256	7.51
642.451	21.84
642.646	13.65
642.842	-6.83
643.037	48.47
643.233	-94.89
643.428	-76.46
643.623	9.56
643.819	1.37
644.014	52.56
644.209	-33.45
644.405	-17.07
644.6	-45.74
644.795	-35.5
644.99	21.84
645.186	13.65
645.381	11.61
645.576	75.09
645.771	21.84
645.967	-60.07
646.162	-0.68
646.357	-187.05
646.552	-2.73
646.747	-84.65
646.943	25.94
647.138	11.61
647.333	95.57
647.528	-51.88
647.723	-33.45
647.918	-8.87
648.113	3.41
648.308	64.85
648.504	64.85
648.699	60.76
648.894	56.66
649.089	-76.46
649.284	-0.68
649.479	-4.78
649.674	-31.4
649.869	173.39
650.064	9.56
650.259	-23.21
650.454	-23.21
650.649	19.8
650.844	-29.35
651.038	3.41
651.233	-74.41
651.428	-72.36
651.623	40.28
651.818	-78.51
652.013	-55.98
652.208	-21.16
652.403	-78.51
652.597	58.71
652.792	-33.45
652.987	42.32
653.182	-17.07
653.377	48.47
653.571	56.66
653.766	38.23
653.961	-55.98
654.156	71
654.35	-86.7
654.545	15.7
654.74	-51.88
654.935	103.76
655.129	-23.21
655.324	-55.98
655.519	79.19
655.713	-19.11
655.908	-158.38
656.102	-101.03
656.297	-51.88
656.492	46.42
656.686	-90.79
656.881	64.85
657.075	-4.78
657.27	21.84
657.464	-17.07
657.659	60.76
657.854	-43.69
658.048	-113.32
658.243	21.84
658.437	3.41
658.631	114
658.826	58.71
659.02	-51.88
659.215	105.81
659.409	-0.68
659.604	-47.79
659.798	-58.03
659.992	-41.64
660.187	40.28
660.381	19.8
660.576	-27.31
660.77	-10.92
660.964	48.47
661.159	-68.27
661.353	54.61
661.547	7.51
661.742	15.7
661.936	-23.21
662.13	-64.17
662.324	68.95
662.519	17.75
662.713	-23.21
662.907	-27.31
663.101	-43.69
663.295	73.04
663.49	-10.92
663.684	-41.64
663.878	38.23
664.072	-55.98
664.266	-10.92
664.46	-41.64
664.654	-37.55
664.849	15.7
665.043	-45.74
665.237	-49.83
665.431	-27.31
665.625	-43.69
665.819	5.46
666.013	-84.65
666.207	-39.59
666.401	114
666.595	-88.75
666.789	54.61
666.983	58.71
667.177	-109.23
667.371	-33.45
667.565	25.94
667.759	36.18
667.953	3.41
668.147	50.52
668.34	-27.31
668.534	-37.55
668.728	71
668.922	-8.87
669.116	-33.45
669.31	-43.69
669.504	-27.31
669.697	-47.79
669.891	-6.83
670.085	-82.6
670.279	97.62
670.473	-105.13
670.666	23.89
670.86	-72.36
671.054	-17.07
671.248	-2.73
671.441	-39.59
671.635	3.41
671.829	-84.65
672.022	19.8
672.216	73.04
672.41	9.56
672.603	50.52
672.797	25.94
672.99	46.42
673.184	-43.69
673.378	17.75
673.571	9.56
673.765	7.51
673.958	-17.07
674.152	-23.21
674.345	-105.13
674.539	-10.92
674.733	-68.27
674.926	-109.23
675.12	-107.18
675.313	-78.51
675.506	34.13
675.7	-19.11
675.893	-45.74
676.087	71
676.28	-2.73
676.474	-84.65
676.667	-47.79
676.86	-33.45
677.054	-53.93
677.247	23.89
677.441	105.81
677.634	-33.45
677.827	23.89
678.02	101.72
678.214	-15.02
678.407	-47.79
678.6	81.24
678.794	-33.45
678.987	7.51
679.18	-41.64
679.373	-98.99
679.567	71
679.76	44.37
679.953	-135.85
680.146	-72.36
680.339	13.65
680.533	1.37
680.726	-39.59
680.919	36.18
681.112	-47.79
681.305	-15.02
681.498	-70.31
681.691	36.18
681.884	-86.7
682.077	-12.97
682.271	9.56
682.464	32.08
682.657	-58.03
682.85	-12.97
683.043	-4.78
683.236	64.85
683.429	93.52
683.622	1.37
683.815	-23.21
684.008	52.56
684.201	-15.02
684.393	5.46
684.586	15.7
684.779	42.32
684.972	-6.83
685.165	17.75
685.358	15.7
685.551	-33.45
685.744	60.76
685.937	36.18
686.129	-98.99
686.322	-4.78
686.515	-115.37
686.708	-55.98
686.901	124.24
687.093	25.94
687.286	40.28
687.479	-98.99
687.672	3.41
687.864	-15.02
688.057	27.99
688.25	-35.5
688.442	54.61
688.635	77.14
688.828	-37.55
689.02	-55.98
689.213	-23.21
689.406	-80.55
689.598	-6.83
689.791	32.08
689.984	-31.4
690.176	27.99
690.369	36.18
690.561	60.76
690.754	-10.92
690.946	75.09
691.139	-94.89
691.331	-23.21
691.524	-45.74
691.716	25.94
691.909	99.67
692.101	-6.83
692.294	32.08
692.486	-31.4
692.679	-15.02
692.871	-45.74
693.063	-21.16
693.256	91.48
693.448	-103.08
693.641	-0.68
693.833	-6.83
694.025	44.37
694.218	9.56
694.41	32.08
694.602	-33.45
694.795	2878.76
694.987	8602.83
695.179	14140.54
695.372	10683.57
695.564	5827.84
695.756	3755.29
695.948	783.69
696.14	138.58
696.333	105.81
696.525	-92.84
696.717	27.99
696.909	-66.22
697.101	-47.79
697.294	58.71
697.486	-33.45
697.678	40.28
697.87	48.47
698.062	-119.46
698.254	50.52
698.446	-19.11
698.638	-111.27
698.83	-45.74
699.022	-0.68
699.215	-111.27
699.407	-19.11
699.599	-103.08
699.791	17.75
699.983	-37.55
700.175	-29.35
700.367	44.37
700.558	48.47
700.75	-39.59
700.942	-25.26
701.134	-62.12
701.326	83.28
701.518	97.62
701.71	-21.16
701.902	-47.79
702.094	30.04
702.286	-96.94
702.477	-37.55
702.669	-25.26
702.861	-72.36
703.053	30.04
703.245	-49.83
703.436	-17.07
703.628	-29.35
703.82	-68.27
704.012	38.23
704.203	-19.11
704.395	-8.87
704.587	-8.87
704.779	19.8
704.97	1899.83
705.162	8994
705.354	11332.78
705.545	8547.54
705.737	5991.67
705.929	2508.08
706.12	1297.73
706.312	105.81
706.503	-31.4
706.695	-35.5
706.887	5.46
707.078	5.46
707.27	23.89
707.461	46.42
707.653	-51.88
707.844	5.46
708.036	-37.55
708.227	-6.83
708.419	-12.97
708.61	60.76
708.802	25.94
708.993	30.04
709.185	25.94
709.376	-15.02
709.567	-55.98
709.759	21.84
709.95	-76.46
710.141	44.37
710.333	-25.26
710.524	-39.59
710.716	32.08
710.907	40.28
711.098	32.08
711.289	-27.31
711.481	-25.26
711.672	-72.36
711.863	-39.59
712.055	114
712.246	-37.55
712.437	-47.79
712.628	-113.32
712.82	19.8
713.011	101.72
713.202	-0.68
713.393	58.71
713.584	95.57
713.775	-45.74
713.967	68.95
714.158	15.7
714.349	9.56
714.54	-72.36
714.731	64.85
714.922	68.95
715.113	-35.5
715.304	3.41
715.495	-49.83
715.686	38.23
715.877	-17.07
716.068	27.99
716.259	-15.02
716.45	36.18
716.641	-55.98
716.832	9.56
717.023	-37.55
717.214	-139.94
717.405	-80.55
717.596	42.32
717.787	21.84
717.978	23.89
718.169	-39.59
718.36	-105.13
718.55	3.41
718.741	21.84
718.932	75.09
719.123	1.37
719.314	-27.31
719.505	148.82
719.695	-8.87
719.886	23.89
720.077	-31.4
720.268	-53.93
720.458	-45.74
720.649	-43.69
720.84	27.99
721.031	-45.74
721.221	-37.55
721.412	-70.31
721.603	-39.59
721.793	-39.59
721.984	5.46
722.175	-109.23
722.365	56.66
722.556	-94.89
722.746	91.48
722.937	-15.02
723.128	-35.5
723.318	-23.21
723.509	-6.83
723.699	64.85
723.89	-62.12
724.08	-60.07
724.271	-2.73
724.461	-64.17
724.652	7.51
724.842	-31.4
725.033	-49.83
725.223	-80.55
725.414	-29.35
725.604	13.65
725.794	-92.84
725.985	85.33
726.175	-37.55
726.366	-43.69
726.556	36.18
726.746	-76.46
726.937	48.47
727.127	19.8
727.317	-27.31
727.508	-66.22
727.698	-70.31
727.888	-4.78
728.079	36.18
728.269	-53.93
728.459	52.56
728.649	15.7
728.84	1.37
729.03	34.13
729.22	3.41
729.41	13.65
729.6	95.57
729.791	52.56
729.981	-111.27
730.171	-70.31
730.361	-8.87
730.551	-6.83
730.741	-74.41
730.931	-8.87
731.121	-6.83
731.311	-51.88
731.502	-6.83
731.692	-23.21
731.882	-49.83
732.072	48.47
732.262	9.56
732.452	44.37
732.642	23.89
732.832	25.94
733.022	-55.98
733.212	40.28
733.402	-58.03
733.591	7.51
733.781	-21.16
733.971	-47.79
734.161	-25.26
734.351	-135.85
734.541	50.52
734.731	11.61
734.921	-64.17
735.111	23.89
735.3	-0.68
735.49	-115.37
735.68	11.61
735.87	-4.78
736.06	-15.02
736.249	-6.83
736.439	-33.45
736.629	4263.19
736.819	11613.35
737.008	19678.25
737.198	20259.87
737.388	12778.64
737.577	9034.96
737.767	6178.04
737.957	2258.23
738.146	1064.26
738.336	81.24
738.526	75.09
738.715	48.47
738.905	54.61
739.094	-37.55
739.284	7.51
739.474	83.28
739.663	105.81
739.853	46.42
740.042	75.09
740.232	27.99
740.421	23.89
740.611	11.61
740.8	-88.75
740.99	32.08
741.179	-8.87
741.369	27.99
741.558	75.09
741.748	-0.68
741.937	-70.31
742.126	-6.83
742.316	-8.87
742.505	-43.69
742.695	-27.31
742.884	68.95
743.073	-82.6
743.263	7.51
743.452	68.95
743.641	-8.87
743.831	-47.79
744.02	-60.07
744.209	34.13
744.398	-23.21
744.588	-19.11
744.777	85.33
744.966	-60.07
745.155	52.56
745.345	-47.79
745.534	-4.78
745.723	48.47
745.912	44.37
746.101	-25.26
746.29	-68.27
746.48	5.46
746.669	109.91
746.858	-31.4
747.047	-131.75
747.236	-27.31
747.425	36.18
747.614	13.65
747.803	-51.88
747.992	-94.89
748.181	25.94
748.37	-6.83
748.559	-12.97
748.748	1799.48
748.937	7195.88
749.126	12129.44
749.315	12586.13
749.504	11922.59
749.693	10669.23
749.882	14969.97
750.071	19409.97
750.26	20415.52
750.449	16882.77
750.638	13737.09
750.826	7441.64
751.015	5633.28
751.204	2125.11
751.393	628.04
751.582	118.1
751.771	58.71
751.959	52.56
752.148	-6.83
752.337	132.44
752.526	-8.87
752.714	-8.87
752.903	11.61
753.092	23.89
753.281	-47.79
753.469	-2.73
753.658	11.61
753.847	99.67
754.035	75.09
754.224	21.84
754.413	-25.26
754.601	9.56
754.79	-62.12
754.979	-6.83
755.167	-15.02
755.356	-8.87
755.544	32.08
755.733	-4.78
755.921	52.56
756.11	-2.73
756.298	-103.08
756.487	5.46
756.675	32.08
756.864	-4.78
757.052	-0.68
757.241	58.71
757.429	-94.89
757.618	-101.03
757.806	-25.26
757.995	-10.92
758.183	-39.59
758.371	-25.26
758.56	-8.87
758.748	30.04
758.937	-62.12
759.125	138.58
759.313	34.13
759.502	-6.83
759.69	19.8
759.878	46.42
760.066	-51.88
760.255	-105.13
760.443	-82.6
760.631	-64.17
760.819	-25.26
761.008	38.23
761.196	-27.31
761.384	-37.55
761.572	728.39
761.761	5518.59
761.949	17269.84
762.137	33567.57
762.325	41726.68
762.513	35500.86
762.701	31998.83
762.889	22830.07
763.077	16972.88
763.266	11480.23
763.454	7175.4
763.642	2594.09
763.83	1031.49
764.018	173.39
764.206	56.66
764.394	93.52
764.582	-17.07
764.77	-21.16
764.958	52.56
765.146	-8.87
765.334	3.41
765.522	-35.5
765.71	13.65
765.898	-12.97
766.085	27.99
766.273	-21.16
766.461	-51.88
766.649	-88.75
766.837	-66.22
767.025	58.71
767.213	-33.45
767.401	-27.31
767.588	-49.83
767.776	-4.78
767.964	-15.02
768.152	54.61
768.339	-37.55
768.527	9.56
768.715	-60.07
768.903	-17.07
769.09	-21.16
769.278	-45.74
769.466	-39.59
769.654	-6.83
769.841	-103.08
770.029	114
770.217	-47.79
770.404	-101.03
770.592	-45.74
770.779	226.64
770.967	6173.94
771.155	13513.86
771.342	17194.06
771.53	10745.01
771.717	8082.65
771.905	4545.81
772.092	1664.32
772.28	247.12
772.467	87.38
772.655	7.51
772.842	-49.83
773.03	44.37
773.217	-47.79
773.405	34.13
773.592	1.37
773.78	19.8
773.967	5.46
774.154	-92.84
774.342	-55.98
774.529	1.37
774.717	-115.37
774.904	7.51
775.091	15.7
775.279	32.08
775.466	-43.69
775.653	-29.35
775.841	-53.93
776.028	-15.02
776.215	34.13
776.402	97.62
776.59	-68.27
776.777	23.89
776.964	-119.46
777.151	36.18
777.338	21.84
777.526	-94.89
777.713	62.8
777.9	-33.45
778.087	-119.46
778.274	-82.6
778.461	-58.03
778.649	9.56
778.836	9.56
779.023	124.24
779.21	3.41
779.397	50.52
779.584	-43.69
779.771	1.37
779.958	-43.69
780.145	54.61
780.332	-98.99
780.519	23.89
780.706	-88.75
780.893	66.9
781.08	-15.02
781.267	-10.92
781.454	44.37
781.641	40.28
781.828	-86.7
782.015	58.71
782.202	-31.4
782.388	-2.73
782.575	-25.26
782.762	-8.87
782.949	-72.36
783.136	-23.21
783.323	-19.11
783.509	36.18
783.696	-19.11
783.883	58.71
784.07	66.9
784.257	87.38
784.443	48.47
784.63	-29.35
784.817	30.04
785.004	-33.45
785.19	-58.03
785.377	-49.83
785.564	-25.26
785.75	48.47
785.937	79.19
786.124	-31.4
786.31	1.37
786.497	25.94
786.683	-76.46
786.87	-90.79
787.057	9.56
787.243	-15.02
787.43	-10.92
787.616	-21.16
787.803	68.95
787.989	27.99
788.176	132.44
788.362	-17.07
788.549	-41.64
788.735	-55.98
788.922	-101.03
789.108	34.13
789.295	-58.03
789.481	27.99
789.668	-25.26
789.854	-70.31
790.04	-15.02
790.227	42.32
790.413	11.61
790.599	32.08
790.786	-60.07
790.972	44.37
791.158	46.42
791.345	46.42
791.531	-37.55
791.717	-19.11
791.904	7.51
792.09	42.32
792.276	130.39
792.462	30.04
792.649	66.9
792.835	-8.87
793.021	-10.92
793.207	-15.02
793.393	91.48
793.58	4345.11
793.766	9895.1
793.952	8672.47
794.138	6982.89
794.324	3497.25
794.51	1125.7
794.696	146.77
794.882	44.37
795.069	-21.16
795.255	-23.21
795.441	46.42
795.627	-123.56
795.813	32.08
795.999	-17.07
796.185	-62.12
796.371	21.84
796.557	3.41
796.743	56.66
796.929	73.04
797.115	-37.55
797.3	-80.55
797.486	-70.31
797.672	-82.6
797.858	7.51
798.044	5.46
798.23	-29.35
798.416	75.09
798.602	-146.09
798.788	30.04
798.973	-121.51
799.159	19.8
799.345	-6.83
799.531	435.53
799.717	1600.83
799.902	2344.24
800.088	4693.26
800.274	7564.51
800.46	13937.79
800.645	13876.35
800.831	8705.23
801.017	3691.8
801.202	2633.01
801.388	394.58
801.574	52.56
801.759	21.84
801.945	-58.03
802.131	36.18
802.316	46.42
802.502	3.41
802.687	-53.93
802.873	-4.78
803.058	-47.79
803.244	-39.59
803.43	-17.07
803.615	27.99
803.801	-135.85
803.986	60.76
804.172	-62.12
804.357	13.65
804.543	-27.31
804.728	-51.88
804.913	-8.87
805.099	-33.45
805.284	-64.17
805.47	68.95
805.655	-51.88
805.84	-162.47
806.026	-29.35
806.211	-8.87
806.397	-41.64
806.582	-51.88
806.767	-88.75
806.953	17.75
807.138	-17.07
807.323	-37.55
807.508	-23.21
807.694	17.75
807.879	-121.51
808.064	-4.78
808.249	66.9
808.435	-25.26
808.62	-17.07
808.805	-10.92
808.99	1482.05
809.175	6290.68
809.361	12422.3
809.546	15930.47
809.731	18259.01
809.916	16143.45
810.101	16059.49
810.286	22299.65
810.471	32584.55
810.656	34921.28
810.841	32627.56
811.026	30731.14
811.211	24962.01
811.396	17708.1
811.581	13390.99
811.766	9274.57
811.951	6104.31
812.136	2475.31
812.321	1176.9
812.506	181.59
812.691	81.24
812.876	-4.78
813.061	17.75
813.246	83.28
813.431	-8.87
813.616	105.81
813.801	1.37
813.986	30.04
814.17	17.75
814.355	-92.84
814.54	13.65
814.725	-19.11
814.91	-55.98
815.094	11.61
815.279	-0.68
815.464	60.76
815.649	-144.04
815.833	54.61
816.018	36.18
816.203	91.48
816.388	-178.86
816.572	-66.22
816.757	-31.4
816.942	-37.55
817.126	-23.21
817.311	-47.79
817.496	-60.07
817.68	3.41
817.865	-27.31
818.049	-35.5
818.234	-0.68
818.419	-21.16
818.603	-35.5
818.788	-39.59
818.972	-88.75
819.157	-4.78
819.341	-58.03
819.526	85.33
819.71	-17.07
819.895	-129.7
820.079	46.42
820.264	-0.68
820.448	46.42
820.633	9.56
820.817	97.62
821.001	-49.83
821.186	7.51
821.37	-6.83
821.554	-39.59
821.739	-115.37
821.923	-158.38
822.108	109.91
822.292	89.43
822.476	7.51
822.66	-8.87
822.845	-115.37
823.029	-37.55
823.213	13.65
823.398	146.77
823.582	89.43
823.766	-41.64
823.95	-90.79
824.134	-92.84
824.319	-49.83
824.503	-74.41
824.687	128.34
824.871	83.28
825.055	91.48
825.239	-72.36
825.423	-90.79
825.608	798.03
825.792	1420.61
825.976	1451.33
826.16	486.73
826.344	243.03
826.528	-92.84
826.712	50.52
826.896	-64.17
827.08	-19.11
827.264	19.8
827.448	-6.83
827.632	-55.98
827.816	19.8
828	114
828.184	-4.78
828.368	32.08
828.552	-12.97
828.736	-15.02
828.919	-43.69
829.103	40.28
829.287	32.08
829.471	-8.87
829.655	60.76
829.839	71
830.023	42.32
830.206	25.94
830.39	-66.22
830.574	46.42
830.758	60.76
830.941	25.94
831.125	3.41
831.309	-2.73
831.493	-10.92
831.676	-25.26
831.86	-0.68
832.044	27.99
832.227	21.84
832.411	-62.12
832.595	-6.83
832.778	34.13
832.962	30.04
833.146	1.37
833.329	-58.03
833.513	7.51
833.696	-92.84
833.88	-2.73
834.064	-12.97
834.247	60.76
834.431	-80.55
834.614	-55.98
834.798	-15.02
834.981	-27.31
835.165	-53.93
835.348	-45.74
835.532	97.62
835.715	44.37
835.898	-29.35
836.082	-31.4
836.265	-84.65
836.449	32.08
836.632	-68.27
836.815	75.09
836.999	-41.64
837.182	-31.4
837.365	-55.98
837.549	3.41
837.732	1.37
837.915	-4.78
838.099	-43.69
838.282	134.48
838.465	-74.41
838.648	126.29
838.832	-107.18
839.015	17.75
839.198	42.32
839.381	32.08
839.565	-49.83
839.748	-10.92
839.931	370
840.114	4134.17
840.297	7736.54
840.48	5993.72
840.663	5168.39
840.847	3292.45
841.03	1799.48
841.213	347.47
841.396	961.86
841.579	2223.41
841.762	6221.05
841.945	8463.57
842.128	8979.66
842.311	6698.22
842.494	3321.12
842.677	531.79
842.86	81.24
843.043	-4.78
843.226	46.42
843.409	-12.97
843.592	21.84
843.775	-8.87
843.958	-51.88
844.141	136.53
844.323	21.84
844.506	-27.31
844.689	-25.26
844.872	15.7
845.055	-31.4
845.238	11.61
845.42	15.7
845.603	-103.08
845.786	-45.74
845.969	-23.21
846.152	152.91
846.334	-15.02
846.517	25.94
846.7	-103.08
846.883	-17.07
847.065	-21.16
847.248	-74.41
847.431	-103.08
847.613	-0.68
847.796	-12.97
847.979	-27.31
848.161	75.09
848.344	-80.55
848.526	-25.26
848.709	-88.75
848.892	-47.79
849.074	15.7
849.257	1.37
849.439	-62.12
849.622	42.32
849.804	-60.07
849.987	-58.03
850.169	-15.02
850.352	71
850.534	-68.27
850.717	17.75
850.899	-8.87
851.082	25.94
851.264	97.62
851.446	25.94
851.629	11.61
851.811	42.32
851.994	58.71
852.176	-15.02
852.358	-49.83
852.541	-60.07
852.723	-8.87
852.905	-35.5
853.088	-98.99
853.27	17.75
853.452	-0.68
853.635	-21.16
853.817	-8.87
853.999	-0.68
854.181	-12.97
854.363	13.65
854.546	-60.07
854.728	-92.84
854.91	107.86
855.092	97.62
855.274	-62.12
855.457	-101.03
855.639	-68.27
855.821	5.46
856.003	25.94
856.185	-68.27
856.367	-4.78
856.549	83.28
856.731	-53.93
856.913	79.19
857.095	15.7
857.277	58.71
857.459	-8.87
857.641	5.46
857.823	-12.97
858.005	36.18
858.187	-39.59
858.369	-92.84
858.551	-37.55
858.733	-17.07
858.915	58.71
859.097	5.46
859.279	-53.93
859.461	64.85
859.643	-6.83
859.824	71
860.006	-68.27
860.188	36.18
860.37	1.37
860.552	-45.74
860.734	-92.84
860.915	-4.78
861.097	48.47
861.279	-0.68
861.461	25.94
861.642	-49.83
861.824	-31.4
862.006	-84.65
862.188	-23.21
862.369	75.09
862.551	-76.46
862.733	-8.87
862.914	-35.5
863.096	-23.21
863.278	-2.73
863.459	-25.26
863.641	23.89
863.822	-29.35
864.004	-33.45
864.185	77.14
864.367	-76.46
864.549	1.37
864.73	-17.07
864.912	-37.55
865.093	30.04
865.275	-53.93
865.456	-12.97
865.638	25.94
865.819	-29.35
866.001	-51.88
866.182	-72.36
866.363	-12.97
866.545	-129.7
866.726	-55.98
866.908	40.28
867.089	-39.59
867.27	36.18
867.452	3.41
867.633	36.18
867.814	36.18
867.996	-58.03
868.177	23.89
868.358	-72.36
868.54	-78.51
868.721	-107.18
868.902	-33.45
869.083	36.18
869.265	-2.73
869.446	3.41
869.627	1.37
869.808	-60.07
869.989	-66.22
870.171	-68.27
870.352	-0.68
870.533	-105.13
870.714	-15.02
870.895	75.09
871.076	77.14
871.257	-12.97
871.438	-15.02
871.619	-15.02
871.801	-51.88
871.982	48.47
872.163	-0.68
872.344	-33.45
872.525	17.75
872.706	11.61
872.887	50.52
873.068	-25.26
873.249	42.32
873.43	21.84
873.61	66.9
873.791	5.46
873.972	9.56
874.153	-70.31
874.334	11.61
874.515	-37.55
874.696	40.28
874.877	-76.46
875.058	50.52
875.238	-105.13
875.419	19.8
875.6	-58.03
875.781	-47.79
875.962	-66.22
876.142	30.04
876.323	-45.74
876.504	-10.92
876.685	-150.18
876.865	-31.4
877.046	-29.35
877.227	-43.69
877.407	13.65
877.588	19.8
877.769	42.32
877.949	1.37
878.13	-35.5
878.311	77.14
878.491	27.99
878.672	56.66
878.853	-43.69
879.033	-17.07
879.214	-29.35
879.394	-31.4
879.575	-129.7
879.755	-64.17
879.936	-8.87
880.116	-27.31
880.297	-105.13
880.477	9.56
880.658	-4.78
880.838	-94.89
881.019	-43.69
881.199	-23.21
881.38	11.61
881.56	-53.93
881.74	-10.92
881.921	-10.92
882.101	54.61
882.281	-78.51
882.462	68.95
882.642	-8.87
882.822	-37.55
883.003	-98.99
883.183	-6.83
883.363	-43.69
883.544	-41.64
883.724	-37.55
883.904	27.99
884.084	-12.97
884.265	-6.83
884.445	25.94
884.625	-90.79
884.805	1.37
884.985	-90.79
885.166	-62.12
885.346	13.65
885.526	-4.78
885.706	25.94
885.886	-39.59
886.066	-51.88
886.246	23.89
886.426	-76.46
886.606	-2.73
886.787	-76.46
886.967	23.89
887.147	-105.13
887.327	48.47
887.507	-0.68
887.687	-8.87
887.867	-0.68
888.047	-94.89
888.227	-45.74
888.406	85.33
888.586	-12.97
888.766	-68.27
888.946	-33.45
889.126	23.89
889.306	13.65
889.486	3.41
889.666	-0.68
889.846	3.41
890.025	120.15
890.205	-74.41
890.385	40.28
890.565	40.28
890.745	120.15
890.924	-66.22
891.104	-98.99
891.284	-27.31
891.464	-19.11
891.643	25.94
891.823	-90.79
892.003	77.14
892.183	-27.31
892.362	-68.27
892.542	27.99
892.722	11.61
892.901	15.7
893.081	-0.68
893.26	-92.84
893.44	-80.55
893.62	-35.5
893.799	-39.59
893.979	-53.93
894.158	-53.93
894.338	-25.26
894.517	-2.73
894.697	-19.11
894.877	13.65
895.056	-6.83
895.236	-94.89
895.415	-55.98
895.594	99.67
895.774	30.04
895.953	42.32
896.133	-12.97
896.312	-68.27
896.492	42.32
896.671	13.65
896.85	-62.12
897.03	-6.83
897.209	7.51
897.388	13.65
897.568	-21.16
897.747	25.94
897.926	-76.46
898.106	-35.5
898.285	-53.93
898.464	-39.59
898.643	-41.64
898.823	58.71
899.002	-47.79
899.181	-4.78
899.36	15.7
899.54	15.7
899.719	-55.98
899.898	-31.4
900.077	38.23
900.256	-6.83
900.435	-33.45
900.614	17.75
900.794	-53.93
900.973	-6.83
901.152	87.38
901.331	83.28
901.51	11.61
901.689	-43.69
901.868	32.08
902.047	116.05
902.226	42.32
902.405	-51.88
902.584	-15.02
902.763	-27.31
902.942	32.08
903.121	-107.18
903.3	-125.61
903.479	-76.46
903.658	-70.31
903.837	-49.83
904.015	27.99
904.194	32.08
904.373	19.8
904.552	46.42
904.731	3.41
904.91	-64.17
905.089	-0.68
905.267	19.8
905.446	34.13
905.625	40.28
905.804	-4.78
905.982	23.89
906.161	3.41
906.34	-29.35
906.519	-123.56
906.697	-53.93
906.876	-8.87
907.055	-37.55
907.233	83.28
907.412	107.86
907.591	-41.64
907.769	11.61
907.948	11.61
908.127	21.84
908.305	38.23
908.484	9.56
908.662	-29.35
908.841	-60.07
909.019	-88.75
909.198	-21.16
909.377	-74.41
909.555	-12.97
909.734	-0.68
909.912	-51.88
910.09	-68.27
910.269	46.42
910.447	-17.07
910.626	21.84
910.804	-21.16
910.983	60.76
911.161	-58.03
911.339	19.8
911.518	54.61
911.696	13.65
911.875	7.51
912.053	-37.55
912.231	-76.46
912.41	-29.35
912.588	-37.55
912.766	-15.02
912.944	-12.97
913.123	138.58
913.301	-53.93
913.479	-21.16
913.657	62.8
913.836	40.28
914.014	-64.17
914.192	19.8
914.37	9.56
914.548	62.8
914.727	-27.31
914.905	9.56
915.083	-29.35
915.261	-78.51
915.439	-6.83
915.617	19.8
915.795	-103.08
915.973	15.7
916.151	-60.07
916.329	-27.31
916.508	-58.03
916.686	-6.83
916.864	-10.92
917.042	1.37
917.22	-123.56
917.398	-98.99
917.575	34.13
917.753	-2.73
917.931	-47.79
918.109	-35.5
918.287	44.37
918.465	50.52
918.643	-96.94
918.821	27.99
918.999	-72.36
919.177	-4.78
919.354	-37.55
919.532	-84.65
919.71	62.8
919.888	-6.83
920.066	-51.88
920.243	27.99
920.421	9.56
920.599	144.72
920.777	42.32
920.954	34.13
921.132	-45.74
921.31	30.04
921.488	-45.74
921.665	-35.5
921.843	-84.65
922.021	-2.73
922.198	-6.83
922.376	-15.02
922.553	38.23
922.731	-35.5
922.909	-35.5
923.086	-55.98
923.264	-66.22
923.441	-88.75
923.619	-105.13
923.796	-49.83
923.974	-43.69
924.152	-117.42
924.329	-37.55
924.507	-12.97
924.684	-58.03
924.861	42.32
925.039	25.94
925.216	21.84
925.394	-168.62
925.571	1.37
925.749	-72.36
925.926	56.66
926.103	-86.7
926.281	-41.64
926.458	-6.83
926.635	97.62
926.813	-15.02
926.99	75.09
927.167	-0.68
927.345	73.04
927.522	-25.26
927.699	42.32
927.876	-4.78
928.054	44.37
928.231	-29.35
928.408	-8.87
928.585	-49.83
928.763	-4.78
928.94	-60.07
929.117	30.04
929.294	-43.69
929.471	27.99
929.648	-35.5
929.825	62.8
930.003	15.7
930.18	-41.64
930.357	54.61
930.534	-92.84
930.711	19.8
930.888	30.04
931.065	7.51
931.242	91.48
931.419	56.66
931.596	-8.87
931.773	-12.97
931.95	-4.78
932.127	42.32
932.304	-139.94
932.481	-17.07
932.658	7.51
932.835	-43.69
933.011	30.04
933.188	11.61
933.365	40.28
933.542	-2.73
933.719	-96.94
933.896	-4.78
934.073	15.7
934.249	-12.97
934.426	-43.69
934.603	-47.79
934.78	81.24
934.957	-96.94
935.133	-33.45
935.31	-129.7
935.487	-82.6
935.664	-10.92
935.84	-96.94
936.017	-45.74
936.194	3.41
936.37	-47.79
936.547	3.41
936.724	71
936.9	-6.83
937.077	62.8
937.253	62.8
937.43	-47.79
937.607	-10.92
937.783	-23.21
937.96	3.41
938.136	-60.07
938.313	-21.16
938.489	-25.26
938.666	77.14
938.842	5.46
939.019	32.08
939.195	-92.84
939.372	52.56
939.548	-15.02
939.725	-45.74
939.901	-12.97
940.077	-25.26
940.254	11.61
940.43	-137.9
940.607	5.46
940.783	-35.5
940.959	91.48
941.136	-10.92
941.312	23.89
941.488	56.66
941.665	-15.02
941.841	32.08
942.017	-117.42
942.193	-66.22
942.37	40.28
942.546	13.65
942.722	-15.02
942.898	75.09
943.074	95.57
943.251	-117.42
943.427	-39.59
943.603	-8.87
943.779	-60.07
943.955	5.46
944.131	-88.75
944.308	-23.21
944.484	-60.07
944.66	48.47
944.836	-66.22
945.012	-25.26
945.188	126.29
945.364	17.75
945.54	-90.79
945.716	-109.23
945.892	54.61
946.068	-113.32
946.244	-37.55
946.42	1.37
946.596	-80.55
946.772	-6.83
946.948	-96.94
947.124	-15.02
947.3	-25.26
947.475	-45.74
947.651	46.42
947.827	-25.26
948.003	25.94
948.179	-55.98
948.355	-66.22
948.531	1.37
948.706	42.32
948.882	46.42
949.058	15.7
949.234	-49.83
949.409	-98.99
949.585	132.44
949.761	60.76
949.937	95.57
950.112	-47.79
950.288	48.47
950.464	-41.64
950.639	-0.68
950.815	89.43
950.991	17.75
951.166	21.84
951.342	56.66
951.518	1.37
951.693	-4.78
951.869	15.7
952.044	-2.73
952.22	15.7
952.395	-35.5
952.571	-35.5
952.747	-43.69
952.922	3.41
953.098	3.41
953.273	-47.79
953.448	38.23
953.624	40.28
953.799	120.15
953.975	7.51
954.15	23.89
954.326	-76.46
954.501	30.04
954.676	9.56
954.852	-39.59
955.027	-70.31
955.203	-72.36
955.378	-90.79
955.553	85.33
955.729	-2.73
955.904	-82.6
956.079	-2.73
956.254	-49.83
956.43	-33.45
956.605	73.04
956.78	3.41
956.955	7.51
957.131	130.39
957.306	7.51
957.481	36.18
957.656	-70.31
957.831	-21.16
958.007	-41.64
958.182	-35.5
958.357	-51.88
958.532	-29.35
958.707	-33.45
958.882	-8.87
959.057	13.65
959.232	-25.26
959.407	-94.89
959.582	-37.55
959.757	-21.16
959.932	9.56
960.107	-76.46
960.282	30.04
960.457	1.37
960.632	-17.07
960.807	-29.35
960.982	23.89
961.157	-107.18
961.332	-53.93
961.507	-60.07
961.682	-49.83
961.857	-31.4
962.032	23.89
962.206	-33.45
962.381	-10.92
962.556	-86.7
962.731	27.99
962.906	3.41
963.081	7.51
963.255	48.47
963.43	83.28
963.605	-60.07
963.78	23.89
963.954	-0.68
964.129	-49.83
964.304	-15.02
964.479	-41.64
964.653	-58.03
964.828	-88.75
965.003	19.8
965.177	23.89
965.352	-101.03
965.526	-2.73
965.701	-6.83
965.876	-10.92
966.05	-4.78
966.225	-17.07
966.399	-121.51
966.574	-60.07
966.748	19.8
966.923	-21.16
967.098	17.75
967.272	-64.17
967.446	-12.97
967.621	-0.68
967.795	89.43
967.97	-12.97
968.144	73.04
968.319	-19.11
968.493	87.38
968.668	-31.4
968.842	120.15
969.016	-23.21
969.191	30.04
969.365	48.47
969.539	44.37
969.714	48.47
969.888	-25.26
970.062	-31.4
970.237	-8.87
970.411	81.24
970.585	-53.93
970.759	-37.55
970.934	5.46
971.108	-8.87
971.282	15.7
971.456	1.37
971.63	19.8
971.805	3.41
971.979	-68.27
972.153	-82.6
972.327	13.65
972.501	25.94
972.675	-0.68
972.849	77.14
973.024	-12.97
973.198	-19.11
973.372	23.89
973.546	-27.31
973.72	17.75
973.894	-82.6
974.068	27.99
974.242	34.13
974.416	-25.26
974.59	15.7
974.764	-98.99
974.938	-105.13
975.112	99.67
975.286	1.37
975.46	-37.55
975.633	25.94
975.807	-4.78
975.981	-33.45
976.155	-0.68
976.329	-29.35
976.503	85.33
976.677	-8.87
976.85	-98.99
977.024	-6.83
977.198	11.61
977.372	-119.46
977.546	-8.87
977.719	-107.18
977.893	-39.59
978.067	-51.88
978.241	11.61
978.414	9.56
978.588	-70.31
978.762	-8.87
978.935	44.37
979.109	138.58
979.283	138.58
979.456	32.08
979.63	-47.79
979.804	-72.36
979.977	-111.27
980.151	-92.84
980.324	85.33
980.498	30.04
980.671	5.46
980.845	-62.12
981.018	-33.45
981.192	-101.03
981.365	-37.55
981.539	38.23
981.712	73.04
981.886	-15.02
982.059	23.89
982.233	79.19
982.406	-45.74
982.58	-17.07
982.753	30.04
982.926	-33.45
983.1	-76.46
983.273	62.8
983.446	44.37
983.62	44.37
983.793	23.89
983.966	-84.65
984.14	9.56
984.313	-51.88
984.486	-10.92
984.66	-19.11
984.833	30.04
985.006	-88.75
985.179	5.46
985.352	-2.73
985.526	-6.83
985.699	-23.21
985.872	-111.27
986.045	34.13
986.218	73.04
986.391	-6.83
986.565	1.37
986.738	-119.46
986.911	-150.18
987.084	9.56
987.257	-84.65
987.43	11.61
987.603	-10.92
987.776	-39.59
987.949	-8.87
988.122	9.56
988.295	-55.98
988.468	-41.64
988.641	5.46
988.814	-86.7
988.987	-39.59
989.16	9.56
989.333	11.61
989.506	-25.26
989.679	75.09
989.852	-105.13
990.025	11.61
990.197	-45.74
990.37	-76.46
990.543	-19.11
990.716	-23.21
990.889	-45.74
991.062	38.23
991.234	-23.21
991.407	138.58
991.58	38.23
991.753	-31.4
991.925	-47.79
992.098	-23.21
992.271	-31.4
992.444	38.23
992.616	-86.7
992.789	15.7
992.962	-88.75
993.134	56.66
993.307	-55.98
993.479	-15.02
993.652	-17.07
993.825	-41.64
993.997	36.18
994.17	126.29
994.342	-25.26
994.515	-29.35
994.688	3.41
994.86	-0.68
995.033	-76.46
995.205	17.75
995.378	9.56
995.55	32.08
995.723	-31.4
995.895	23.89
996.067	-33.45
996.24	21.84
996.412	11.61
996.585	-0.68
996.757	-2.73
996.929	36.18
997.102	27.99
997.274	25.94
997.447	-17.07
997.619	-12.97
997.791	-25.26
997.964	-29.35
998.136	-43.69
998.308	77.14
998.48	-37.55
998.653	34.13
998.825	-6.83
998.997	60.76
999.169	-86.7
999.342	13.65
999.514	25.94
999.686	-0.68
999.858	21.84
1000.03	-45.74
1000.202	-2.73
1000.374	-29.35
1000.547	-10.92
1000.719	-35.5
1000.891	-23.21
1001.063	-6.83
1001.235	-37.55
1001.407	-82.6
1001.579	27.99
1001.751	-29.35
1001.923	9.56
1002.095	-35.5
1002.267	62.8
1002.439	148.82
1002.611	-64.17
1002.783	-29.35
1002.955	40.28
1003.127	91.48
1003.299	36.18
1003.471	101.72
1003.643	-148.14
1003.815	-35.5
1003.986	-35.5
1004.158	-96.94
1004.33	-31.4
1004.502	-39.59
1004.674	-21.16
1004.846	-15.02
1005.017	-78.51
1005.189	38.23
1005.361	-6.83
1005.533	11.61
1005.704	5.46
1005.876	-78.51
1006.048	124.24
1006.22	17.75
1006.391	-133.8
1006.563	75.09
1006.735	73.04
1006.906	19.8
1007.078	-119.46
1007.25	75.09
1007.421	-55.98
1007.593	-6.83
1007.764	-6.83
1007.936	62.8
1008.108	-12.97
1008.279	-74.41
1008.451	40.28
1008.622	-0.68
1008.794	-35.5
1008.965	-96.94
1009.137	-51.88
1009.308	62.8
1009.48	-68.27
1009.651	38.23
1009.823	-43.69
1009.994	9.56
1010.165	-119.46
1010.337	21.84
1010.508	-21.16
1010.68	-141.99
1010.851	-10.92
1011.022	-84.65
1011.194	-94.89
1011.365	-68.27
1011.536	-17.07
1011.708	-15.02
1011.879	-90.79
1012.05	-25.26
1012.222	-90.79
1012.393	-55.98
1012.564	-105.13
1012.735	21.84
1012.906	-39.59
1013.078	-21.16
1013.249	-12.97
1013.42	68.95
1013.591	-35.5
1013.762	-27.31
1013.934	-35.5
1014.105	75.09
1014.276	-51.88
1014.447	-137.9
1014.618	19.8
1014.789	-64.17
1014.96	38.23
1015.131	-82.6
1015.302	15.7
1015.473	-6.83
1015.644	34.13
1015.815	-78.51
1015.986	-94.89
1016.157	5.46
1016.328	-78.51
1016.499	68.95
1016.67	-144.04
1016.841	9.56
1017.012	-4.78
1017.183	-39.59
1017.354	25.94
1017.525	89.43
1017.696	-17.07
1017.867	-55.98
1018.037	-2.73
1018.208	-49.83
1018.379	-47.79
1018.55	-15.02
1018.721	-2.73
1018.891	13.65
1019.062	-72.36
1019.233	7.51
1019.404	32.08
1019.574	-43.69
1019.745	-66.22
1019.916	-101.03
1020.087	34.13
1020.257	-78.51
1020.428	-31.4
1020.599	1.37
1020.769	7.51
1020.94	-8.87
1021.11	-98.99
1021.281	15.7
1021.452	-60.07
1021.622	66.9
1021.793	9.56
1021.963	-41.64
1022.134	-64.17
1022.305	-23.21
1022.475	-64.17
1022.646	21.84
1022.816	17.75
1022.987	1.37
1023.157	9.56
1023.327	13.65
1023.498	-15.02
1023.668	-41.64
1023.839	-39.59
1024.009	105.81
1024.18	-45.74
1024.35	-6.83
1024.52	-68.27
1024.691	-39.59
1024.861	-113.32
1025.031	52.56
1025.202	-51.88
1025.372	-60.07
1025.542	-64.17
1025.713	-37.55
1025.883	21.84
1026.053	-43.69
1026.223	-86.7
1026.394	-88.75
1026.564	-4.78
1026.734	-10.92
1026.904	-90.79
1027.074	1.37
1027.245	-51.88
1027.415	-2.73
1027.585	34.13
1027.755	89.43
1027.925	-70.31
1028.095	17.75
1028.265	-64.17
1028.435	-12.97
1028.606	-31.4
1028.776	132.44
1028.946	25.94
1029.116	-29.35
1029.286	11.61
1029.456	-68.27
1029.626	-45.74
1029.796	32.08
1029.966	-80.55
1030.136	-27.31
1030.306	21.84
1030.475	-31.4
1030.645	64.85
1030.815	-21.16
1030.985	34.13
1031.155	-35.5
1031.325	-27.31
1031.495	-62.12
1031.665	-41.64
1031.835	-68.27
1032.004	-43.69
1032.174	9.56
1032.344	-25.26
1032.514	-45.74
1032.684	19.8
1032.853	-51.88
1033.023	21.84
1033.193	-113.32
1033.362	-78.51
1033.532	-141.99
1033.702	-15.02
1033.872	54.61
1034.041	56.66
1034.211	-141.99
1034.381	11.61
1034.55	-43.69
1034.72	7.51
1034.889	-33.45
1035.059	40.28
1035.229	13.65
1035.398	-31.4
1035.568	1.37
1035.737	-74.41
1035.907	30.04
1036.076	32.08
1036.246	-31.4
1036.415	-10.92
1036.585	-25.26
1036.754	-17.07
1036.924	1.37
1037.093	-8.87
1037.263	48.47
1037.432	-82.6
1037.601	-39.59
1037.771	-19.11
1037.94	-17.07
1038.11	77.14
1038.279	-49.83
1038.448	38.23
1038.618	-17.07
1038.787	-88.75
1038.956	54.61
1039.126	-76.46
1039.295	17.75
1039.464	7.51
1039.633	-29.35
1039.803	-68.27
1039.972	134.48
1040.141	-51.88
1040.31	103.76
1040.479	-121.51
1040.649	-31.4
1040.818	11.61
1040.987	116.05
1041.156	21.84
1041.325	-37.55
1041.494	118.1
1041.663	-86.7
1041.833	-107.18
1042.002	-92.84
1042.171	-92.84
1042.34	77.14
1042.509	-17.07
1042.678	-72.36
