Data from LSP78_X15_Subt2_15-24-01-516.txt Node
Date: Wed Aug 16 15:24:01 EDT 2023
User: Emmanuel
Spectrometer: USB4A00615
Scans to average: 1
Trigger mode: 1
Integration Time (sec): 7.000000E-3
Electric dark correction enabled: true
Boxcar width: 0
XAxis mode: Wavelengths
Number of Pixels in Spectrum: 3648
>>>>>Begin Spectral Data<<<<<
346.606	-96.94
346.818	-96.94
347.029	-96.94
347.241	40.28
347.452	85.33
347.664	46.42
347.876	52.56
348.087	3.41
348.299	-19.11
348.51	-33.45
348.722	-45.74
348.933	-39.59
349.145	-12.97
349.356	9.56
349.568	25.94
349.779	-0.68
349.991	13.65
350.202	109.91
350.414	-76.46
350.625	-107.18
350.836	52.56
351.048	109.91
351.259	44.37
351.471	56.66
351.682	97.62
351.893	11.61
352.105	40.28
352.316	-15.02
352.527	85.33
352.739	-27.31
352.95	7.51
353.161	-15.02
353.372	11.61
353.584	-0.68
353.795	-2.73
354.006	-45.74
354.217	-4.78
354.429	-10.92
354.64	-33.45
354.851	27.99
355.062	-107.18
355.274	-6.83
355.485	-62.12
355.696	1.37
355.907	9.56
356.118	23.89
356.329	15.7
356.54	-21.16
356.752	40.28
356.963	-0.68
357.174	48.47
357.385	9.56
357.596	-43.69
357.807	-33.45
358.018	-64.17
358.229	58.71
358.44	-82.6
358.651	83.28
358.862	52.56
359.073	32.08
359.284	-4.78
359.495	-41.64
359.706	52.56
359.917	114
360.128	1.37
360.339	-58.03
360.55	-72.36
360.761	-8.87
360.972	101.72
361.182	-33.45
361.393	32.08
361.604	-68.27
361.815	-53.93
362.026	-12.97
362.237	-37.55
362.447	5.46
362.658	-86.7
362.869	-72.36
363.08	9.56
363.291	1.37
363.501	5.46
363.712	-39.59
363.923	-35.5
364.134	-27.31
364.344	-135.85
364.555	-12.97
364.766	11.61
364.976	-12.97
365.187	68.95
365.398	81.24
365.608	-27.31
365.819	-41.64
366.03	58.71
366.24	-41.64
366.451	-133.8
366.662	-4.78
366.872	15.7
367.083	5.46
367.293	5.46
367.504	77.14
367.714	109.91
367.925	15.7
368.135	40.28
368.346	56.66
368.557	-41.64
368.767	23.89
368.977	23.89
369.188	36.18
369.398	46.42
369.609	-27.31
369.819	3.41
370.03	-0.68
370.24	32.08
370.451	1.37
370.661	-21.16
370.871	52.56
371.082	81.24
371.292	68.95
371.502	-45.74
371.713	34.13
371.923	1.37
372.133	83.28
372.344	-41.64
372.554	7.51
372.764	44.37
372.975	-19.11
373.185	46.42
373.395	30.04
373.605	-84.65
373.816	48.47
374.026	-6.83
374.236	85.33
374.446	122.2
374.656	-39.59
374.867	60.76
375.077	-6.83
375.287	-47.79
375.497	38.23
375.707	-41.64
375.917	-4.78
376.127	3.41
376.338	146.77
376.548	95.57
376.758	32.08
376.968	-43.69
377.178	-58.03
377.388	9.56
377.598	36.18
377.808	-2.73
378.018	66.9
378.228	-17.07
378.438	81.24
378.648	5.46
378.858	-39.59
379.068	54.61
379.278	-45.74
379.488	91.48
379.698	81.24
379.908	5.46
380.118	105.81
380.327	-80.55
380.537	-41.64
380.747	-78.51
380.957	-0.68
381.167	-27.31
381.377	79.19
381.587	-2.73
381.796	44.37
382.006	-96.94
382.216	3.41
382.426	116.05
382.636	-4.78
382.845	19.8
383.055	7.51
383.265	-17.07
383.475	3.41
383.684	30.04
383.894	-29.35
384.104	19.8
384.313	75.09
384.523	-49.83
384.733	42.32
384.942	46.42
385.152	-82.6
385.362	-15.02
385.571	-23.21
385.781	-10.92
385.991	-27.31
386.2	9.56
386.41	-12.97
386.619	130.39
386.829	19.8
387.038	-27.31
387.248	-41.64
387.457	-19.11
387.667	-15.02
387.876	25.94
388.086	42.32
388.295	81.24
388.505	-72.36
388.714	126.29
388.924	-41.64
389.133	-49.83
389.343	50.52
389.552	27.99
389.762	-37.55
389.971	-41.64
390.18	-45.74
390.39	11.61
390.599	91.48
390.808	-23.21
391.018	-92.84
391.227	30.04
391.436	15.7
391.646	-21.16
391.855	-23.21
392.064	54.61
392.274	83.28
392.483	-55.98
392.692	-39.59
392.901	75.09
393.111	38.23
393.32	-68.27
393.529	105.81
393.738	-33.45
393.947	-6.83
394.157	19.8
394.366	-72.36
394.575	34.13
394.784	-21.16
394.993	52.56
395.202	81.24
395.411	-84.65
395.62	36.18
395.83	73.04
396.039	30.04
396.248	-17.07
396.457	-4.78
396.666	-80.55
396.875	27.99
397.084	79.19
397.293	-117.42
397.502	9.56
397.711	15.7
397.92	5.46
398.129	-27.31
398.338	105.81
398.547	-64.17
398.756	38.23
398.965	-33.45
399.174	-70.31
399.382	25.94
399.591	25.94
399.8	-12.97
400.009	42.32
400.218	-162.47
400.427	71
400.636	5.46
400.844	-64.17
401.053	40.28
401.262	25.94
401.471	-33.45
401.68	62.8
401.888	-41.64
402.097	171.35
402.306	19.8
402.515	105.81
402.723	-131.75
402.932	66.9
403.141	34.13
403.35	-0.68
403.558	32.08
403.767	-101.03
403.976	114
404.184	11.61
404.393	40.28
404.602	60.76
404.81	-10.92
405.019	-49.83
405.227	-35.5
405.436	97.62
405.645	25.94
405.853	-15.02
406.062	30.04
406.27	32.08
406.479	109.91
406.687	-23.21
406.896	-66.22
407.104	25.94
407.313	34.13
407.521	-21.16
407.73	-15.02
407.938	-37.55
408.147	87.38
408.355	-121.51
408.563	7.51
408.772	-2.73
408.98	11.61
409.189	60.76
409.397	21.85
409.605	15.7
409.814	36.18
410.022	79.19
410.23	50.52
410.439	60.76
410.647	52.56
410.855	73.04
411.064	40.28
411.272	66.9
411.48	-78.51
411.688	-98.99
411.897	-41.64
412.105	-2.73
412.313	-55.98
412.521	-66.22
412.73	87.38
412.938	91.48
413.146	93.52
413.354	-80.55
413.562	23.89
413.77	-37.55
413.979	91.48
414.187	-37.55
414.395	73.04
414.603	-105.13
414.811	32.08
415.019	62.8
415.227	13.65
415.435	25.94
415.643	87.38
415.851	1.37
416.059	38.23
416.267	-25.26
416.475	44.37
416.683	142.68
416.891	-29.35
417.099	-39.59
417.307	19.8
417.515	-129.7
417.723	25.94
417.931	7.51
418.139	15.7
418.347	-10.92
418.555	73.04
418.763	87.38
418.971	48.47
419.179	-82.6
419.386	122.2
419.594	19.8
419.802	-15.02
420.01	-43.69
420.218	75.09
420.426	95.57
420.633	-35.5
420.841	99.67
421.049	-2.73
421.257	-35.5
421.464	40.28
421.672	122.2
421.88	44.37
422.088	-17.07
422.295	87.38
422.503	124.24
422.711	-21.16
422.918	-17.07
423.126	73.04
423.334	44.37
423.541	34.13
423.749	30.04
423.956	124.24
424.164	-8.87
424.372	40.28
424.579	-88.75
424.787	79.19
424.994	-10.92
425.202	36.18
425.409	32.08
425.617	-10.92
425.824	-31.4
426.032	75.09
426.239	-10.92
426.447	-17.07
426.654	-94.89
426.862	128.34
427.069	-33.45
427.277	99.67
427.484	-113.32
427.692	21.85
427.899	5.46
428.106	83.28
428.314	5.46
428.521	21.85
428.728	5.46
428.936	91.48
429.143	109.91
429.351	-64.17
429.558	19.8
429.765	5.46
429.972	15.7
430.18	-10.92
430.387	66.9
430.594	-35.5
430.801	1.37
431.009	91.48
431.216	93.52
431.423	85.33
431.63	40.28
431.838	142.68
432.045	71
432.252	27.99
432.459	-58.03
432.666	50.52
432.873	-21.16
433.081	13.65
433.288	38.23
433.495	-31.4
433.702	-170.66
433.909	62.8
434.116	-21.16
434.323	52.56
434.53	77.14
434.737	27.99
434.944	-4.78
435.151	13.65
435.358	-35.5
435.565	-2.73
435.772	-47.79
435.979	17.75
436.186	79.19
436.393	73.04
436.6	27.99
436.807	-37.55
437.014	52.56
437.221	-25.26
437.428	9.56
437.635	-58.03
437.841	48.47
438.048	60.76
438.255	30.04
438.462	77.14
438.669	-21.16
438.876	-96.94
439.082	-29.35
439.289	23.89
439.496	-47.79
439.703	-29.35
439.91	-43.69
440.116	138.58
440.323	38.23
440.53	-19.11
440.737	-21.16
440.943	122.2
441.15	-64.17
441.357	-84.65
441.563	-113.32
441.77	34.13
441.977	64.85
442.183	60.76
442.39	79.19
442.597	-2.73
442.803	19.8
443.01	-74.41
443.216	-66.22
443.423	99.67
443.63	5.46
443.836	46.42
444.043	17.75
444.249	-66.22
444.456	101.72
444.662	-111.27
444.869	-8.87
445.075	-12.97
445.282	101.72
445.488	-62.12
445.695	5.46
445.901	-6.83
446.107	44.37
446.314	-33.45
446.52	15.7
446.727	-64.17
446.933	46.42
447.139	-0.68
447.346	73.04
447.552	32.08
447.759	-37.55
447.965	-10.92
448.171	-27.31
448.378	66.9
448.584	-43.69
448.79	15.7
448.996	-109.22
449.203	32.08
449.409	-31.4
449.615	48.47
449.821	5.46
450.028	44.37
450.234	52.56
450.44	93.52
450.646	103.76
450.852	77.14
451.059	-10.92
451.265	-25.26
451.471	-82.6
451.677	-35.5
451.883	-10.92
452.089	5.46
452.295	27.99
452.502	27.99
452.708	58.71
452.914	-84.65
453.12	-4.78
453.326	-41.64
453.532	11.61
453.738	68.95
453.944	30.04
454.15	75.09
454.356	103.76
454.562	87.38
454.768	-131.75
454.974	-35.5
455.18	68.95
455.386	25.94
455.592	58.71
455.798	3.41
456.003	114
456.209	-27.31
456.415	36.18
456.621	23.89
456.827	-8.87
457.033	-27.31
457.239	163.15
457.444	-8.87
457.65	79.19
457.856	9.56
458.062	79.19
458.268	56.66
458.473	3.41
458.679	-10.92
458.885	-6.83
459.091	114
459.296	5.46
459.502	-27.31
459.708	122.2
459.914	-0.68
460.119	-94.89
460.325	-39.59
460.531	77.14
460.736	42.32
460.942	32.08
461.147	-17.07
461.353	38.23
461.559	-33.45
461.764	-129.7
461.97	27.99
462.175	52.56
462.381	-23.21
462.587	-6.83
462.792	-150.18
462.998	25.94
463.203	114
463.409	-43.69
463.614	46.42
463.82	19.8
464.025	89.43
464.231	132.44
464.436	93.52
464.641	-31.4
464.847	-45.74
465.052	19.8
465.258	27.99
465.463	27.99
465.669	48.47
465.874	107.86
466.079	93.52
466.285	9.56
466.49	5.46
466.695	68.95
466.901	23.89
467.106	-19.11
467.311	27.99
467.516	-43.69
467.722	40.28
467.927	124.24
468.132	-25.26
468.338	-74.41
468.543	7.51
468.748	-60.07
468.953	-47.79
469.158	-70.31
469.364	77.14
469.569	75.09
469.774	54.61
469.979	30.04
470.184	73.04
470.389	97.62
470.594	27.99
470.8	38.23
471.005	54.61
471.21	-15.02
471.415	54.61
471.62	95.57
471.825	17.75
472.03	27.99
472.235	17.75
472.44	-45.74
472.645	34.13
472.85	1.37
473.055	32.08
473.26	171.35
473.465	66.9
473.67	111.96
473.875	-31.4
474.08	-21.16
474.285	-4.78
474.49	23.89
474.695	15.7
474.899	25.94
475.104	46.42
475.309	-80.55
475.514	-25.26
475.719	11.61
475.924	-10.92
476.128	-51.88
476.333	19.8
476.538	-70.31
476.743	91.48
476.948	-12.97
477.152	-10.92
477.357	-12.97
477.562	73.04
477.767	9.56
477.971	71
478.176	81.24
478.381	89.43
478.585	118.1
478.79	-21.16
478.995	46.42
479.199	1.37
479.404	-23.21
479.609	32.08
479.813	-23.21
480.018	-103.08
480.223	-4.78
480.427	36.18
480.632	9.56
480.836	-113.32
481.041	-35.5
481.245	42.32
481.45	-62.12
481.654	19.8
481.859	-115.37
482.063	5.46
482.268	-4.78
482.472	89.43
482.677	-6.83
482.881	101.72
483.086	-101.03
483.29	25.94
483.495	52.56
483.699	-82.6
483.903	-55.98
484.108	101.72
484.312	68.95
484.517	3.41
484.721	-78.51
484.925	95.57
485.13	-4.78
485.334	-58.03
485.538	-41.64
485.743	-41.64
485.947	-8.87
486.151	75.09
486.355	60.76
486.56	46.42
486.764	44.37
486.968	19.8
487.172	140.63
487.377	-74.41
487.581	-17.07
487.785	-15.02
487.989	32.08
488.193	-19.11
488.397	-27.31
488.602	54.61
488.806	21.85
489.01	-80.55
489.214	97.62
489.418	-37.55
489.622	-2.73
489.826	44.37
490.03	3.41
490.234	62.8
490.438	-162.47
490.642	150.87
490.846	36.18
491.05	1.37
491.254	-146.09
491.458	91.48
491.662	-17.07
491.866	-33.45
492.07	13.65
492.274	148.82
492.478	48.47
492.682	42.32
492.886	-39.59
493.09	3.41
493.294	128.34
493.498	32.08
493.701	-55.98
493.905	-74.41
494.109	46.42
494.313	71
494.517	60.76
494.721	50.52
494.924	-72.36
495.128	85.33
495.332	32.08
495.536	79.19
495.739	-47.79
495.943	93.52
496.147	-25.26
496.351	-29.35
496.554	34.13
496.758	15.7
496.962	-37.55
497.165	9.56
497.369	-84.65
497.573	-117.42
497.776	101.72
497.98	-92.84
498.184	-43.69
498.387	56.66
498.591	-47.79
498.794	109.91
498.998	7.51
499.202	-4.78
499.405	64.85
499.609	-47.79
499.812	85.33
500.016	-33.45
500.219	118.1
500.423	154.96
500.626	40.28
500.83	36.18
501.033	11.61
501.237	105.81
501.44	-64.17
501.643	54.61
501.847	-109.22
502.05	27.99
502.254	77.14
502.457	30.04
502.66	60.76
502.864	-4.78
503.067	-6.83
503.271	-25.26
503.474	-66.22
503.677	-4.78
503.88	64.85
504.084	40.28
504.287	-74.41
504.49	23.89
504.694	87.38
504.897	-55.98
505.1	-51.88
505.303	-8.87
505.507	15.7
505.71	-6.83
505.913	-4.78
506.116	11.61
506.319	40.28
506.522	54.61
506.726	-23.21
506.929	62.8
507.132	-78.51
507.335	66.9
507.538	-0.68
507.741	52.56
507.944	68.95
508.147	62.8
508.35	-53.93
508.553	21.85
508.756	142.68
508.959	-64.17
509.163	-37.55
509.366	7.51
509.569	25.94
509.771	-115.37
509.974	62.8
510.177	-76.46
510.38	34.13
510.583	-39.59
510.786	-15.02
510.989	68.95
511.192	-27.31
511.395	56.66
511.598	68.95
511.801	56.66
512.004	-41.64
512.206	9.56
512.409	68.95
512.612	-47.79
512.815	-33.45
513.018	77.14
513.22	56.66
513.423	-2.73
513.626	-58.03
513.829	-23.21
514.032	38.23
514.234	175.44
514.437	32.08
514.64	21.85
514.842	-31.4
515.045	52.56
515.248	60.76
515.45	7.51
515.653	-29.35
515.856	-6.83
516.058	-58.03
516.261	54.61
516.464	50.52
516.666	56.66
516.869	-68.27
517.071	-107.18
517.274	-39.59
517.477	-82.6
517.679	-21.16
517.882	48.47
518.084	-45.74
518.287	99.67
518.489	-2.73
518.692	93.52
518.894	79.19
519.097	107.86
519.299	54.61
519.501	36.18
519.704	-82.6
519.906	21.85
520.109	71
520.311	-12.97
520.514	-31.4
520.716	-2.73
520.918	-74.41
521.121	114
521.323	-84.65
521.525	-55.98
521.728	-10.92
521.93	-33.45
522.132	75.09
522.335	101.72
522.537	-60.07
522.739	44.37
522.941	-86.7
523.144	17.75
523.346	107.86
523.548	-113.32
523.75	-37.55
523.952	91.48
524.155	15.7
524.357	-45.74
524.559	56.66
524.761	1.37
524.963	89.43
525.165	7.51
525.368	-0.68
525.57	-15.02
525.772	-111.27
525.974	-39.59
526.176	-15.02
526.378	52.56
526.58	-0.68
526.782	75.09
526.984	5.46
527.186	103.76
527.388	62.8
527.59	23.89
527.792	32.08
527.994	25.94
528.196	27.99
528.398	13.65
528.6	126.29
528.802	42.32
529.004	7.51
529.206	-8.87
529.408	15.7
529.609	-37.55
529.811	85.33
530.013	34.13
530.215	-60.07
530.417	105.81
530.619	13.65
530.821	30.04
531.022	-62.12
531.224	-15.02
531.426	83.28
531.628	21.85
531.829	-53.93
532.031	71
532.233	9.56
532.435	202.07
532.636	-53.93
532.838	34.13
533.04	-123.56
533.241	-101.03
533.443	-109.22
533.645	-23.21
533.846	32.08
534.048	38.23
534.25	19.8
534.451	-6.83
534.653	27.99
534.855	48.47
535.056	54.61
535.258	23.89
535.459	128.34
535.661	81.24
535.862	73.04
536.064	-4.78
536.265	95.57
536.467	60.76
536.668	-37.55
536.87	36.18
537.071	52.56
537.273	95.57
537.474	25.94
537.676	-33.45
537.877	91.48
538.078	-162.47
538.28	154.96
538.481	23.89
538.683	5.46
538.884	-23.21
539.085	-47.79
539.287	60.76
539.488	7.51
539.689	-111.27
539.891	42.32
540.092	17.75
540.293	-25.26
540.495	-47.79
540.696	-15.02
540.897	-103.08
541.098	-2.73
541.3	-43.69
541.501	-12.97
541.702	58.71
541.903	-37.55
542.104	40.28
542.306	-4.78
542.507	85.33
542.708	77.14
542.909	-92.84
543.11	1.37
543.311	-47.79
543.512	17.75
543.713	134.48
543.915	9.56
544.116	3.41
544.317	-8.87
544.518	62.8
544.719	-35.5
544.92	99.67
545.121	-15.02
545.322	75.09
545.523	-139.94
545.724	-8.87
545.925	-0.68
546.126	-0.68
546.327	40.28
546.528	15.7
546.729	34.13
546.929	56.66
547.13	-2.73
547.331	81.24
547.532	27.99
547.733	5.46
547.934	40.28
548.135	-84.65
548.336	-27.31
548.536	-92.84
548.737	-45.74
548.938	7.51
549.139	-21.16
549.34	19.8
549.54	21.85
549.741	93.52
549.942	126.29
550.143	-248.49
550.343	109.91
550.544	83.28
550.745	-21.16
550.945	-21.16
551.146	-2.73
551.347	71
551.547	-23.21
551.748	60.76
551.949	34.13
552.149	-15.02
552.35	9.56
552.551	138.58
552.751	91.48
552.952	5.46
553.152	-43.69
553.353	-31.4
553.553	-25.26
553.754	111.96
553.954	11.61
554.155	23.89
554.356	62.8
554.556	-4.78
554.756	-148.14
554.957	-53.93
555.157	-25.26
555.358	71
555.558	-96.94
555.759	136.53
555.959	132.44
556.159	66.9
556.36	15.7
556.56	-12.97
556.761	105.81
556.961	210.26
557.161	-17.07
557.362	130.39
557.562	-66.22
557.762	-43.69
557.963	-62.12
558.163	44.37
558.363	89.43
558.563	-15.02
558.764	-15.02
558.964	36.18
559.164	46.42
559.364	-62.12
559.565	52.56
559.765	-4.78
559.965	9.56
560.165	99.67
560.365	-0.68
560.565	-43.69
560.766	48.47
560.966	40.28
561.166	-51.88
561.366	1.37
561.566	50.52
561.766	-17.07
561.966	-55.98
562.166	54.61
562.366	7.51
562.566	1.37
562.766	52.56
562.966	7.51
563.166	54.61
563.366	46.42
563.566	-6.83
563.766	27.99
563.966	60.76
564.166	-29.35
564.366	56.66
564.566	-78.51
564.766	-74.41
564.966	-33.45
565.166	-12.97
565.366	62.8
565.565	9.56
565.765	19.8
565.965	30.04
566.165	3.41
566.365	23.89
566.565	46.42
566.764	-19.11
566.964	-4.78
567.164	-15.02
567.364	36.18
567.564	36.18
567.763	13.65
567.963	48.47
568.163	-27.31
568.362	40.28
568.562	1.37
568.762	-51.88
568.961	52.56
569.161	27.99
569.361	-47.79
569.56	75.09
569.76	19.8
569.96	-43.69
570.159	9.56
570.359	62.8
570.558	40.28
570.758	-4.78
570.958	25.94
571.157	36.18
571.357	75.09
571.556	21.85
571.756	-23.21
571.955	-29.35
572.155	109.91
572.354	-68.27
572.554	1.37
572.753	7.51
572.953	52.56
573.152	11.61
573.351	7.51
573.551	-144.04
573.75	1.37
573.95	7.51
574.149	-45.74
574.348	5.46
574.548	93.52
574.747	60.76
574.946	27.99
575.146	-37.55
575.345	-12.97
575.544	40.28
575.744	-12.97
575.943	23.89
576.142	73.04
576.342	-123.56
576.541	105.81
576.74	-82.6
576.939	95.57
577.138	3.41
577.338	-129.7
577.537	-25.26
577.736	1.37
577.935	50.52
578.134	42.32
578.333	-23.21
578.533	-19.11
578.732	9.56
578.931	13.65
579.13	-98.99
579.329	3.41
579.528	-47.79
579.727	85.33
579.926	95.57
580.125	44.37
580.324	-72.36
580.523	36.18
580.722	-12.97
580.921	124.24
581.12	11.61
581.319	146.77
581.518	3.41
581.717	-23.21
581.916	3.41
582.115	-49.83
582.314	-82.6
582.513	97.62
582.712	5.46
582.911	66.9
583.109	-51.88
583.308	38.23
583.507	3.41
583.706	71
583.905	17.75
584.104	120.15
584.302	-58.03
584.501	99.67
584.7	-45.74
584.899	15.7
585.098	-29.35
585.296	32.08
585.495	-21.16
585.694	91.48
585.892	-15.02
586.091	23.89
586.29	52.56
586.488	46.42
586.687	11.61
586.886	34.13
587.084	42.32
587.283	-45.74
587.482	-25.26
587.68	11.61
587.879	15.7
588.077	40.28
588.276	64.85
588.475	71
588.673	42.32
588.872	40.28
589.07	50.52
589.269	99.67
589.467	-10.92
589.666	-23.21
589.864	-23.21
590.063	19.8
590.261	-10.92
590.46	40.28
590.658	83.28
590.857	50.52
591.055	-0.68
591.253	17.75
591.452	-10.92
591.65	23.89
591.848	-129.7
592.047	52.56
592.245	27.99
592.444	56.66
592.642	-131.75
592.84	-78.51
593.038	-41.64
593.237	32.08
593.435	23.89
593.633	17.75
593.832	36.18
594.03	11.61
594.228	52.56
594.426	-35.5
594.624	91.48
594.823	54.61
595.021	73.04
595.219	42.32
595.417	38.23
595.615	-23.21
595.813	-55.98
596.012	21.85
596.21	79.19
596.408	-76.46
596.606	-43.69
596.804	66.9
597.002	-23.21
597.2	-66.22
597.398	54.61
597.596	54.61
597.794	21.85
597.992	-12.97
598.19	-148.14
598.388	97.62
598.586	17.75
598.784	83.28
598.982	114
599.18	54.61
599.378	32.08
599.576	-29.35
599.774	-76.46
599.972	-0.68
600.17	-129.7
600.368	60.76
600.565	17.75
600.763	46.42
600.961	-27.31
601.159	-33.45
601.357	-37.55
601.555	64.85
601.752	-43.69
601.95	19.8
602.148	83.28
602.346	-12.97
602.544	-37.55
602.741	-6.83
602.939	-43.69
603.137	25.94
603.334	48.47
603.532	11.61
603.73	-53.93
603.927	73.04
604.125	7.51
604.323	-82.6
604.52	-21.16
604.718	52.56
604.916	-12.97
605.113	-15.02
605.311	-88.75
605.508	30.04
605.706	62.8
605.904	60.76
606.101	-60.07
606.299	-25.26
606.496	-39.59
606.694	-29.35
606.891	-74.41
607.089	13.65
607.286	146.77
607.484	-55.98
607.681	-80.55
607.879	7.51
608.076	-43.69
608.273	19.8
608.471	50.52
608.668	-15.02
608.866	-86.7
609.063	5.46
609.26	3.41
609.458	-33.45
609.655	-25.26
609.852	-66.22
610.05	46.42
610.247	-45.74
610.444	-31.4
610.642	23.89
610.839	-82.6
611.036	-10.92
611.233	48.47
611.431	-39.59
611.628	-53.93
611.825	23.89
612.022	-129.7
612.22	73.04
612.417	-58.03
612.614	-103.08
612.811	-76.46
613.008	73.04
613.205	-8.87
613.402	56.66
613.6	-15.02
613.797	23.89
613.994	-33.45
614.191	-113.32
614.388	7.51
614.585	15.7
614.782	-19.11
614.979	83.28
615.176	-12.97
615.373	-33.45
615.57	-27.31
615.767	-12.97
615.964	23.89
616.161	9.56
616.358	-6.83
616.555	15.7
616.752	-62.12
616.949	81.24
617.146	32.08
617.343	32.08
617.539	-27.31
617.736	-15.02
617.933	5.46
618.13	-4.78
618.327	-78.51
618.524	-17.07
618.721	46.42
618.917	-27.31
619.114	-72.36
619.311	38.23
619.508	-82.6
619.704	-23.21
619.901	66.9
620.098	44.37
620.295	54.61
620.491	-62.12
620.688	-68.27
620.885	77.14
621.081	62.8
621.278	52.56
621.475	7.51
621.671	-101.03
621.868	-23.21
622.065	52.56
622.261	87.38
622.458	19.8
622.655	111.96
622.851	-60.07
623.048	-62.12
623.244	-53.93
623.441	-55.98
623.637	46.42
623.834	-33.45
624.03	60.76
624.227	-4.78
624.423	-31.4
624.62	21.85
624.816	105.81
625.013	-51.88
625.209	27.99
625.406	-37.55
625.602	5.46
625.798	25.94
625.995	42.32
626.191	19.8
626.388	107.86
626.584	5.46
626.78	15.7
626.977	-43.69
627.173	38.23
627.369	103.76
627.566	105.81
627.762	19.8
627.958	46.42
628.154	-139.94
628.351	7.51
628.547	27.99
628.743	150.87
628.939	-60.07
629.136	-74.41
629.332	54.61
629.528	-62.12
629.724	-88.75
629.92	-6.83
630.116	27.99
630.313	-35.5
630.509	7.51
630.705	-6.83
630.901	-19.11
631.097	25.94
631.293	21.85
631.489	-31.4
631.685	-37.55
631.881	1.37
632.077	-68.27
632.273	23.89
632.469	32.08
632.665	-72.36
632.861	-17.07
633.057	-19.11
633.253	-62.12
633.449	-21.16
633.645	71
633.841	-19.11
634.037	-4.78
634.233	75.09
634.429	13.65
634.625	21.85
634.821	-23.21
635.017	-55.98
635.212	21.85
635.408	-31.4
635.604	-0.68
635.8	68.95
635.996	130.39
636.191	-64.17
636.387	-98.99
636.583	62.8
636.779	-12.97
636.975	-88.75
637.17	3.41
637.366	32.08
637.562	-53.93
637.757	-8.87
637.953	-58.03
638.149	46.42
638.345	46.42
638.54	19.8
638.736	79.19
638.931	-58.03
639.127	-12.97
639.323	-109.22
639.518	-19.11
639.714	7.51
639.909	-33.45
640.105	11.61
640.301	19.8
640.496	-12.97
640.692	27.99
640.887	62.8
641.083	-4.78
641.278	68.95
641.474	-12.97
641.669	-76.46
641.865	-0.68
642.06	19.8
642.256	-27.31
642.451	-12.97
642.646	87.38
642.842	81.24
643.037	-41.64
643.233	167.25
643.428	89.43
643.623	-2.73
643.819	-21.16
644.014	58.71
644.209	-78.51
644.405	77.14
644.6	-37.55
644.795	-33.45
644.99	-39.59
645.186	105.81
645.381	-2.73
645.576	-86.7
645.771	77.14
645.967	13.65
646.162	77.14
646.357	118.1
646.552	-68.27
646.747	44.37
646.943	44.37
647.138	11.61
647.333	7.51
647.528	-88.75
647.723	44.37
647.918	71
648.113	58.71
648.308	79.19
648.504	-35.5
648.699	-10.92
648.894	-21.16
649.089	144.72
649.284	50.52
649.479	30.04
649.674	48.47
649.869	-0.68
650.064	15.7
650.259	-27.31
650.454	25.94
650.649	-0.68
650.844	17.75
651.038	13.65
651.233	-8.87
651.428	17.75
651.623	-21.16
651.818	-53.93
652.013	-4.78
652.208	52.56
652.403	50.52
652.597	44.37
652.792	-53.93
652.987	-6.83
653.182	44.37
653.377	-66.22
653.571	23.89
653.766	15.7
653.961	-53.93
654.156	15.7
654.35	97.62
654.545	-43.69
654.74	19.8
654.935	-92.84
655.129	-72.36
655.324	13.65
655.519	19.8
655.713	73.04
655.908	-121.51
656.102	-2.73
656.297	136.53
656.492	107.86
656.686	-55.98
656.881	17.75
657.075	169.3
657.27	13.65
657.464	9.56
657.659	93.52
657.854	-86.7
658.048	-23.21
658.243	75.09
658.437	30.04
658.631	-49.83
658.826	-2.73
659.02	42.32
659.215	159.06
659.409	25.94
659.604	-43.69
659.798	-21.16
659.992	-135.85
660.187	-15.02
660.381	126.29
660.576	-27.31
660.77	91.48
660.964	111.96
661.159	-21.16
661.353	19.8
661.547	89.43
661.742	93.52
661.936	-17.07
662.13	-15.02
662.324	101.72
662.519	-125.61
662.713	7.51
662.907	-129.7
663.101	52.56
663.295	-31.4
663.49	9.56
663.684	-86.7
663.878	93.52
664.072	130.39
664.266	-21.16
664.46	15.7
664.654	-43.69
664.849	3.41
665.043	58.71
665.237	40.28
665.431	-2.73
665.625	48.47
665.819	32.08
666.013	-45.74
666.207	66.9
666.401	-37.55
666.595	15.7
666.789	-76.46
666.983	-152.23
667.177	56.66
667.371	-58.03
667.565	-68.27
667.759	54.61
667.953	42.32
668.147	73.04
668.34	-92.84
668.534	-51.88
668.728	11.61
668.922	-8.87
669.116	118.1
669.31	60.76
669.504	-86.7
669.697	56.66
669.891	42.32
670.085	85.33
670.279	68.95
670.473	9.56
670.666	21.85
670.86	-6.83
671.054	83.28
671.248	-23.21
671.441	-68.27
671.635	3.41
671.829	42.32
672.022	87.38
672.216	25.94
672.41	1.37
672.603	-66.22
672.797	-45.74
672.99	-66.22
673.184	114
673.378	-10.92
673.571	17.75
673.765	5.46
673.958	32.08
674.152	81.24
674.345	97.62
674.539	-8.87
674.733	-72.36
674.926	64.85
675.12	-35.5
675.313	-135.85
675.506	27.99
675.7	66.9
675.893	-0.68
676.087	40.28
676.28	25.94
676.474	19.8
676.667	13.65
676.86	11.61
677.054	1.37
677.247	-23.21
677.441	-45.74
677.634	-10.92
677.827	-47.79
678.02	101.72
678.214	122.2
678.407	-17.07
678.6	-39.59
678.794	-117.42
678.987	56.66
679.18	38.23
679.373	71
679.567	21.85
679.76	-19.11
679.953	-35.5
680.146	87.38
680.339	-119.46
680.533	-31.4
680.726	89.43
680.919	68.95
681.112	-6.83
681.305	32.08
681.498	50.52
681.691	-6.83
681.884	-51.88
682.077	75.09
682.271	-49.83
682.464	-90.79
682.657	1.37
682.85	-135.85
683.043	-17.07
683.236	109.91
683.429	32.08
683.622	77.14
683.815	-86.7
684.008	30.04
684.201	-10.92
684.393	-58.03
684.586	-121.51
684.779	23.89
684.972	60.76
685.165	21.85
685.358	42.32
685.551	23.89
685.744	-76.46
685.937	126.29
686.129	-74.41
686.322	95.57
686.515	-10.92
686.708	-137.9
686.901	3.41
687.093	-2.73
687.286	73.04
687.479	15.7
687.672	32.08
687.864	103.76
688.057	32.08
688.25	-27.31
688.442	-6.83
688.635	44.37
688.828	46.42
689.02	13.65
689.213	-37.55
689.406	60.76
689.598	19.8
689.791	-41.64
689.984	79.19
690.176	-17.07
690.369	40.28
690.561	-47.79
690.754	-41.64
690.946	-23.21
691.139	42.32
691.331	130.39
691.524	-39.59
691.716	87.38
691.909	-8.87
692.101	17.75
692.294	111.96
692.486	-82.6
692.679	81.24
692.871	9.56
693.063	3.41
693.256	58.71
693.448	9.56
693.641	-23.21
693.833	-94.89
694.025	-4.78
694.218	101.72
694.41	95.57
694.602	3.41
694.795	13.65
694.987	-21.16
695.179	19.8
695.372	-62.12
695.564	25.94
695.756	38.23
695.948	11.61
696.14	58.71
696.333	111.96
696.525	9.56
696.717	48.47
696.909	-0.68
697.101	109.91
697.294	7.51
697.486	-19.11
697.678	-76.46
697.87	11.61
698.062	46.42
698.254	-55.98
698.446	-74.41
698.638	-27.31
698.83	-117.42
699.022	124.24
699.215	-21.16
699.407	-49.83
699.599	-90.79
699.791	-23.21
699.983	-17.07
700.175	-31.4
700.367	81.24
700.558	-101.03
700.75	99.67
700.942	44.37
701.134	34.13
701.326	-55.98
701.518	40.28
701.71	85.33
701.902	114
702.094	-88.75
702.286	7.51
702.477	-2.73
702.669	114
702.861	99.67
703.053	-86.7
703.245	-10.92
703.436	-15.02
703.628	64.85
703.82	81.24
704.012	1.37
704.203	-12.97
704.395	-117.42
704.587	-82.6
704.779	58.71
704.97	9.56
705.162	25.94
705.354	-25.26
705.545	-51.88
705.737	17.75
705.929	13.65
706.12	-4.78
706.312	64.85
706.503	60.76
706.695	-12.97
706.887	120.15
707.078	-27.31
707.27	23.89
707.461	-12.97
707.653	52.56
707.844	68.95
708.036	32.08
708.227	48.47
708.419	-49.83
708.61	66.9
708.802	109.91
708.993	52.56
709.185	1.37
709.376	-78.51
709.567	19.8
709.759	-0.68
709.95	-103.08
710.141	73.04
710.333	5.46
710.524	-43.69
710.716	-23.21
710.907	13.65
711.098	-133.8
711.289	54.61
711.481	52.56
711.672	103.76
711.863	66.9
712.055	25.94
712.246	5.46
712.437	-74.41
712.628	-51.88
712.82	-60.07
713.011	-49.83
713.202	-2.73
713.393	-160.42
713.584	-31.4
713.775	9.56
713.967	32.08
714.158	-21.16
714.349	-39.59
714.54	-76.46
714.731	25.94
714.922	-25.26
715.113	27.99
715.304	-0.68
715.495	-45.74
715.686	-51.88
715.877	-27.31
716.068	-64.17
716.259	50.52
716.45	-21.16
716.641	-51.88
716.832	-90.79
717.023	68.95
717.214	-64.17
717.405	42.32
717.596	54.61
717.787	114
717.978	-37.55
718.169	-35.5
718.36	7.51
718.55	17.75
718.741	-15.02
718.932	-17.07
719.123	-4.78
719.314	13.65
719.505	48.47
719.695	-23.21
719.886	-53.93
720.077	52.56
720.268	-31.4
720.458	25.94
720.649	34.13
720.84	42.32
721.031	-12.97
721.221	5.46
721.412	-25.26
721.603	-51.88
721.793	27.99
721.984	7.51
722.175	99.67
722.365	13.65
722.556	-58.03
722.746	46.42
722.937	-49.83
723.128	109.91
723.318	-43.69
723.509	-90.79
723.699	93.52
723.89	-0.68
724.08	-6.83
724.271	-12.97
724.461	34.13
724.652	-78.51
724.842	32.08
725.033	-31.4
725.223	-62.12
725.414	-119.46
725.604	46.42
725.794	-27.31
725.985	-51.88
726.175	136.53
726.366	73.04
726.556	13.65
726.746	114
726.937	89.43
727.127	-37.55
727.317	52.56
727.508	89.43
727.698	-55.98
727.888	87.38
728.079	-6.83
728.269	-105.13
728.459	-121.51
728.649	-31.4
728.84	-15.02
729.03	-12.97
729.22	-121.51
729.41	-12.97
729.6	79.19
729.791	-45.74
729.981	-6.83
730.171	-2.73
730.361	48.47
730.551	-58.03
730.741	-6.83
730.931	-33.45
731.121	-10.92
731.311	62.8
731.502	77.14
731.692	3.41
731.882	62.8
732.072	11.61
732.262	-62.12
732.452	-62.12
732.642	-2.73
732.832	44.37
733.022	-35.5
733.212	-21.16
733.402	81.24
733.591	11.61
733.781	58.71
733.971	38.23
734.161	-29.35
734.351	95.57
734.541	144.72
734.731	-12.97
734.921	11.61
735.111	13.65
735.3	89.43
735.49	-47.79
735.68	64.85
735.87	68.95
736.06	-31.4
736.249	3.41
736.439	-29.35
736.629	134.48
736.819	42.32
737.008	77.14
737.198	-37.55
737.388	-17.07
737.577	23.89
737.767	68.95
737.957	-17.07
738.146	1.37
738.336	15.7
738.526	32.08
738.715	-66.22
738.905	15.7
739.094	-47.79
739.284	144.72
739.474	-55.98
739.663	134.48
739.853	3.41
740.042	66.9
740.232	-45.74
740.421	-4.78
740.611	-6.83
740.8	-68.27
740.99	36.18
741.179	44.37
741.369	36.18
741.558	-51.88
741.748	-35.5
741.937	-49.83
742.126	-21.16
742.316	-2.73
742.505	-6.83
742.695	13.65
742.884	95.57
743.073	7.51
743.263	-15.02
743.452	-12.97
743.641	-0.68
743.831	73.04
744.02	7.51
744.209	-47.79
744.398	9.56
744.588	-12.97
744.777	32.08
744.966	85.33
745.155	-101.03
745.345	-17.07
745.534	19.8
745.723	-49.83
745.912	163.15
746.101	89.43
746.29	114
746.48	-33.45
746.669	-6.83
746.858	-12.97
747.047	11.61
747.236	-105.13
747.425	-17.07
747.614	17.75
747.803	36.18
747.992	50.52
748.181	126.29
748.37	3.41
748.559	-90.79
748.748	81.24
748.937	-27.31
749.126	62.8
749.315	130.39
749.504	-6.83
749.693	136.53
749.882	-2.73
750.071	62.8
750.26	32.08
750.449	-0.68
750.638	21.85
750.826	71
751.015	-15.02
751.204	40.28
751.393	-29.35
751.582	-60.07
751.771	-4.78
751.959	-103.08
752.148	9.56
752.337	-39.59
752.526	38.23
752.714	32.08
752.903	-15.02
753.092	-19.11
753.281	30.04
753.469	-35.5
753.658	40.28
753.847	-21.16
754.035	27.99
754.224	1.37
754.413	-21.16
754.601	-15.02
754.79	9.56
754.979	-60.07
755.167	42.32
755.356	-29.35
755.544	44.37
755.733	1.37
755.921	11.61
756.11	-17.07
756.298	64.85
756.487	3.41
756.675	-21.16
756.864	-10.92
757.052	17.75
757.241	-33.45
757.429	32.08
757.618	-2.73
757.806	-0.68
757.995	9.56
758.183	-21.16
758.371	40.28
758.56	-6.83
758.748	3.41
758.937	-53.93
759.125	21.85
759.313	1.37
759.502	-4.78
759.69	-98.99
759.878	-41.64
760.066	-21.16
760.255	79.19
760.443	60.76
760.631	56.66
760.819	40.28
761.008	13.65
761.196	-35.5
761.384	46.42
761.572	23.89
761.761	116.05
761.949	-15.02
762.137	9.56
762.325	1.37
762.513	1.37
762.701	1.37
762.889	58.71
763.077	-25.26
763.266	23.89
763.454	9.56
763.642	-78.51
763.83	-41.64
764.018	91.48
764.206	-53.93
764.394	17.75
764.582	-23.21
764.77	21.85
764.958	27.99
765.146	48.47
765.334	-98.99
765.522	-62.12
765.71	13.65
765.898	64.85
766.085	5.46
766.273	85.33
766.461	32.08
766.649	120.15
766.837	-31.4
767.025	50.52
767.213	-86.7
767.401	-96.94
767.588	9.56
767.776	91.48
767.964	25.94
768.152	107.86
768.339	5.46
768.527	-0.68
768.715	83.28
768.903	114
769.09	27.99
769.278	107.86
769.466	7.51
769.654	48.47
769.841	1.37
770.029	-23.21
770.217	-90.79
770.404	89.43
770.592	-23.21
770.779	30.04
770.967	-41.64
771.155	3.41
771.342	-10.92
771.53	50.52
771.717	-74.41
771.905	46.42
772.092	34.13
772.28	-51.88
772.467	56.66
772.655	-78.51
772.842	-66.22
773.03	42.32
773.217	107.86
773.405	-53.93
773.592	-0.68
773.78	-0.68
773.967	-31.4
774.154	-60.07
774.342	17.75
774.529	3.41
774.717	-23.21
774.904	11.61
775.091	-4.78
775.279	126.29
775.466	79.19
775.653	-4.78
775.841	77.14
776.028	58.71
776.215	-115.37
776.402	52.56
776.59	1.37
776.777	-21.16
776.964	-33.45
777.151	54.61
777.338	126.29
777.526	-6.83
777.713	44.37
777.9	23.89
778.087	23.89
778.274	-29.35
778.461	19.8
778.649	109.91
778.836	-70.31
779.023	77.14
779.21	-19.11
779.397	-6.83
779.584	17.75
779.771	-17.07
779.958	34.13
780.145	-8.87
780.332	87.38
780.519	-84.65
780.706	-6.83
780.893	68.95
781.08	44.37
781.267	52.56
781.454	-62.12
781.641	48.47
781.828	-31.4
782.015	83.28
782.202	79.19
782.388	-17.07
782.575	-78.51
782.762	105.81
782.949	42.32
783.136	75.09
783.323	-17.07
783.509	9.56
783.696	1.37
783.883	-25.26
784.07	21.85
784.257	46.42
784.443	-15.02
784.63	93.52
784.817	-47.79
785.004	42.32
785.19	179.54
785.377	-117.42
785.564	60.76
785.75	34.13
785.937	32.08
786.124	30.04
786.31	-105.13
786.497	-15.02
786.683	-68.27
786.87	3.41
787.057	-29.35
787.243	34.13
787.43	75.09
787.616	-39.59
787.803	-0.68
787.989	11.61
788.176	-4.78
788.362	79.19
788.549	42.32
788.735	79.19
788.922	-33.45
789.108	-39.59
789.295	56.66
789.481	68.95
789.668	130.39
789.854	-0.68
790.04	-12.97
790.227	56.66
790.413	15.7
790.599	-12.97
790.786	83.28
790.972	3.41
791.158	27.99
791.345	77.14
791.531	-72.36
791.717	40.28
791.904	-8.87
792.09	77.14
792.276	-35.5
792.462	44.37
792.649	-70.31
792.835	23.89
793.021	-23.21
793.207	89.43
793.393	-131.75
793.58	32.08
793.766	17.75
793.952	99.67
794.138	73.04
794.324	13.65
794.51	50.52
794.696	91.48
794.882	-60.07
795.069	-8.87
795.255	138.58
795.441	-84.65
795.627	19.8
795.813	13.65
795.999	-23.21
796.185	-55.98
796.371	46.42
796.557	27.99
796.743	85.33
796.929	1.37
797.115	1.37
797.3	-107.18
797.486	27.99
797.672	23.89
797.858	50.52
798.044	-31.4
798.23	-8.87
798.416	75.09
798.602	-78.51
798.788	46.42
798.973	-60.07
799.159	-31.4
799.345	13.65
799.531	-62.12
799.717	-10.92
799.902	-41.64
800.088	1.37
800.274	23.89
800.46	-74.41
800.645	21.85
800.831	-23.21
801.017	52.56
801.202	42.32
801.388	11.61
801.574	-55.98
801.759	11.61
801.945	-144.04
802.131	-35.5
802.316	-135.85
802.502	40.28
802.687	58.71
802.873	-37.55
803.058	-6.83
803.244	42.32
803.43	27.99
803.615	52.56
803.801	1.37
803.986	38.23
804.172	15.7
804.357	214.35
804.543	-60.07
804.728	36.18
804.913	73.04
805.099	97.62
805.284	27.99
805.47	42.32
805.655	5.46
805.84	9.56
806.026	36.18
806.211	-19.11
806.397	68.95
806.582	62.8
806.767	-0.68
806.953	1.37
807.138	-49.83
807.323	36.18
807.508	105.81
807.694	-15.02
807.879	17.75
808.064	17.75
808.249	-37.55
808.435	-135.85
808.62	85.33
808.805	50.52
808.99	-27.31
809.175	-35.5
809.361	38.23
809.546	-25.26
809.731	-78.51
809.916	-6.83
810.101	-21.16
810.286	-80.55
810.471	17.75
810.656	-133.8
810.841	130.39
811.026	-0.68
811.211	-19.11
811.396	-0.68
811.581	52.56
811.766	48.47
811.951	-2.73
812.136	-88.75
812.321	-23.21
812.506	-31.4
812.691	64.85
812.876	-96.94
813.061	32.08
813.246	15.7
813.431	111.96
813.616	-6.83
813.801	50.52
813.986	64.85
814.17	-45.74
814.355	114
814.54	50.52
814.725	91.48
814.91	25.94
815.094	21.85
815.279	54.61
815.464	21.85
815.649	103.76
815.833	-31.4
816.018	-84.65
816.203	11.61
816.388	-0.68
816.572	44.37
816.757	-68.27
816.942	-86.7
817.126	-64.17
817.311	44.37
817.496	-25.26
817.68	50.52
817.865	-27.31
818.049	66.9
818.234	34.13
818.419	-25.26
818.603	71
818.788	54.61
818.972	36.18
819.157	68.95
819.341	-144.04
819.526	30.04
819.71	-25.26
819.895	21.85
820.079	62.8
820.264	89.43
820.448	122.2
820.633	7.51
820.817	99.67
821.001	85.33
821.186	5.46
821.37	36.18
821.554	19.8
821.739	114
821.923	-82.6
822.108	-53.93
822.292	-35.5
822.476	-45.74
822.66	46.42
822.845	13.65
823.029	71
823.213	-2.73
823.398	-33.45
823.582	21.85
823.766	-39.59
823.95	56.66
824.134	32.08
824.319	-29.35
824.503	-123.56
824.687	-27.31
824.871	-98.99
825.055	68.95
825.239	-117.42
825.423	68.95
825.608	87.38
825.792	-41.64
825.976	-4.78
826.16	-12.97
826.344	-12.97
826.528	27.99
826.712	7.51
826.896	-70.31
827.08	-29.35
827.264	138.58
827.448	-49.83
827.632	15.7
827.816	-62.12
828	-86.7
828.184	177.49
828.368	48.47
828.552	-23.21
828.736	15.7
828.919	-174.76
829.103	50.52
829.287	-113.32
829.471	-84.65
829.655	-21.16
829.839	-21.16
830.023	11.61
830.206	1.37
830.39	-49.83
830.574	56.66
830.758	128.34
830.941	-10.92
831.125	44.37
831.309	136.53
831.493	-117.42
831.676	27.99
831.86	-103.08
832.044	11.61
832.227	3.41
832.411	-4.78
832.595	-47.79
832.778	-33.45
832.962	64.85
833.146	54.61
833.329	17.75
833.513	138.58
833.696	-86.7
833.88	-25.26
834.064	-39.59
834.247	17.75
834.431	60.76
834.614	32.08
834.798	-25.26
834.981	103.76
835.165	-105.13
835.348	-74.41
835.532	1.37
835.715	5.46
835.898	-0.68
836.082	71
836.265	23.89
836.449	-35.5
836.632	66.9
836.815	56.66
836.999	91.48
837.182	-21.16
837.365	30.04
837.549	136.53
837.732	1.37
837.915	-49.83
838.099	-105.13
838.282	93.52
838.465	-4.78
838.648	-29.35
838.832	34.13
839.015	25.94
839.198	128.34
839.381	-6.83
839.565	71
839.748	81.24
839.931	-25.26
840.114	-31.4
840.297	-15.02
840.48	68.95
840.663	42.32
840.847	-43.69
841.03	-31.4
841.213	-8.87
841.396	128.34
841.579	-19.11
841.762	-41.64
841.945	48.47
842.128	-53.93
842.311	-55.98
842.494	27.99
842.677	48.47
842.86	87.38
843.043	85.33
843.226	54.61
843.409	27.99
843.592	13.65
843.775	-37.55
843.958	1.37
844.141	-37.55
844.323	73.04
844.506	-37.55
844.689	36.18
844.872	-55.98
845.055	-117.42
845.238	83.28
845.42	-53.93
845.603	-70.31
845.786	-70.31
845.969	-29.35
846.152	126.29
846.334	11.61
846.517	-47.79
846.7	34.13
846.883	75.09
847.065	91.48
847.248	-29.35
847.431	27.99
847.613	118.1
847.796	-86.7
847.979	128.34
848.161	36.18
848.344	42.32
848.526	56.66
848.709	-41.64
848.892	-0.68
849.074	42.32
849.257	36.18
849.439	7.51
849.622	-0.68
849.804	-35.5
849.987	-41.64
850.169	44.37
850.352	15.7
850.534	-29.35
850.717	128.34
850.899	11.61
851.082	15.7
851.264	-23.21
851.446	40.28
851.629	-45.74
851.811	13.65
851.994	-25.26
852.176	-80.55
852.358	44.37
852.541	-86.7
852.723	103.76
852.905	79.19
853.088	-29.35
853.27	15.7
853.452	87.38
853.635	-10.92
853.817	-12.97
853.999	-82.6
854.181	-72.36
854.363	17.75
854.546	11.61
854.728	66.9
854.91	91.48
855.092	-15.02
855.274	54.61
855.457	101.72
855.639	124.24
855.821	77.14
856.003	71
856.185	-76.46
856.367	-27.31
856.549	15.7
856.731	-0.68
856.913	15.7
857.095	-76.46
857.277	15.7
857.459	-58.03
857.641	-27.31
857.823	-2.73
858.005	11.61
858.187	5.46
858.369	32.08
858.551	-41.64
858.733	46.42
858.915	-60.07
859.097	7.51
859.279	-82.6
859.461	-39.59
859.643	-41.64
859.824	-62.12
860.006	-74.41
860.188	-0.68
860.37	30.04
860.552	-103.08
860.734	-41.64
860.915	34.13
861.097	38.23
861.279	66.9
861.461	-94.89
861.642	30.04
861.824	159.06
862.006	3.41
862.188	-129.7
862.369	13.65
862.551	-10.92
862.733	40.28
862.914	-33.45
863.096	-4.78
863.278	-31.4
863.459	-21.16
863.641	114
863.822	-33.45
864.004	-62.12
864.185	-41.64
864.367	-19.11
864.549	38.23
864.73	38.23
864.912	77.14
865.093	34.13
865.275	-12.97
865.456	-82.6
865.638	15.7
865.819	-45.74
866.001	-60.07
866.182	73.04
866.363	91.48
866.545	54.61
866.726	-60.07
866.908	-70.31
867.089	13.65
867.27	66.9
867.452	60.76
867.633	23.89
867.814	-64.17
867.996	44.37
868.177	36.18
868.358	-23.21
868.54	-62.12
868.721	-113.32
868.902	15.7
869.083	-35.5
869.265	34.13
869.446	-137.9
869.627	-66.22
869.808	-45.74
869.989	120.15
870.171	62.8
870.352	-0.68
870.533	30.04
870.714	-129.7
870.895	-21.16
871.076	-41.64
871.257	109.91
871.438	-66.22
871.619	99.67
871.801	77.14
871.982	3.41
872.163	-47.79
872.344	-92.84
872.525	60.76
872.706	-55.98
872.887	48.47
873.068	-60.07
873.249	-0.68
873.43	-43.69
873.61	-31.4
873.791	-41.64
873.972	11.61
874.153	58.71
874.334	83.28
874.515	1.37
874.696	32.08
874.877	27.99
875.058	-39.59
875.238	-25.26
875.419	136.53
875.6	-78.51
875.781	13.65
875.962	9.56
876.142	42.32
876.323	66.9
876.504	-129.7
876.685	-35.5
876.865	1.37
877.046	-60.07
877.227	32.08
877.407	77.14
877.588	56.66
877.769	-41.64
877.949	114
878.13	46.42
878.311	-21.16
878.491	-82.6
878.672	56.66
878.853	5.46
879.033	-15.02
879.214	-17.07
879.394	79.19
879.575	-60.07
879.755	36.18
879.936	-8.87
880.116	11.61
880.297	-49.83
880.477	3.41
880.658	11.61
880.838	-31.4
881.019	-62.12
881.199	-62.12
881.38	-12.97
881.56	-33.45
881.74	-17.07
881.921	-2.73
882.101	50.52
882.281	7.51
882.462	23.89
882.642	46.42
882.822	-2.73
883.003	38.23
883.183	7.51
883.363	-27.31
883.544	11.61
883.724	-19.11
883.904	11.61
884.084	13.65
884.265	81.24
884.445	52.56
884.625	38.23
884.805	111.96
884.985	-70.31
885.166	54.61
885.346	34.13
885.526	101.72
885.706	34.13
885.886	-15.02
886.066	23.89
886.246	-35.5
886.426	81.24
886.606	79.19
886.787	68.95
886.967	140.63
887.147	-23.21
887.327	32.08
887.507	3.41
887.687	79.19
887.867	7.51
888.047	-33.45
888.227	25.94
888.406	81.24
888.586	64.85
888.766	83.28
888.946	-41.64
889.126	42.32
889.306	66.9
889.486	-10.92
889.666	-60.07
889.846	17.75
890.025	40.28
890.205	-62.12
890.385	97.62
890.565	93.52
890.745	79.19
890.924	-70.31
891.104	-74.41
891.284	48.47
891.464	-58.03
891.643	48.47
891.823	-41.64
892.003	-17.07
892.183	-45.74
892.362	101.72
892.542	-23.21
892.722	73.04
892.901	95.57
893.081	105.81
893.26	11.61
893.44	13.65
893.62	-10.92
893.799	5.46
893.979	-12.97
894.158	-101.03
894.338	75.09
894.517	-12.97
894.697	73.04
894.877	44.37
895.056	-35.5
895.236	-2.73
895.415	-17.07
895.594	36.18
895.774	99.67
895.953	23.89
896.133	-53.93
896.312	-88.75
896.492	34.13
896.671	1.37
896.85	-2.73
897.03	17.75
897.209	25.94
897.388	1.37
897.568	1.37
897.747	-19.11
897.926	-72.36
898.106	-121.51
898.285	44.37
898.464	91.48
898.643	124.24
898.823	21.85
899.002	-94.89
899.181	-39.59
899.36	19.8
899.54	138.58
899.719	3.41
899.898	21.85
900.077	-29.35
900.256	1.37
900.435	-33.45
900.614	179.54
900.794	-98.99
900.973	11.61
901.152	-25.26
901.331	17.75
901.51	-29.35
901.689	87.38
901.868	15.7
902.047	-37.55
902.226	83.28
902.405	36.18
902.584	11.61
902.763	1.37
902.942	60.76
903.121	40.28
903.3	23.89
903.479	27.99
903.658	42.32
903.837	81.24
904.015	38.23
904.194	58.71
904.373	7.51
904.552	15.7
904.731	-96.94
904.91	91.48
905.089	-60.07
905.267	-58.03
905.446	-6.83
905.625	60.76
905.804	-121.51
905.982	-35.5
906.161	73.04
906.34	-137.9
906.519	19.8
906.697	103.76
906.876	25.94
907.055	60.76
907.233	7.51
907.412	-4.78
907.591	46.42
907.769	-10.92
907.948	107.86
908.127	68.95
908.305	34.13
908.484	-68.27
908.662	7.51
908.841	46.42
909.019	36.18
909.198	-78.51
909.377	95.57
909.555	-10.92
909.734	42.32
909.912	-35.5
910.09	34.13
910.269	-62.12
910.447	-96.94
910.626	17.75
910.804	64.85
910.983	85.33
911.161	-92.84
911.339	130.39
911.518	48.47
911.696	-31.4
911.875	68.95
912.053	-8.87
912.231	-51.88
912.41	-39.59
912.588	-43.69
912.766	185.68
912.944	132.44
913.123	-17.07
913.301	23.89
913.479	36.18
913.657	1.37
913.836	-35.5
914.014	-23.21
914.192	68.95
914.37	-33.45
914.548	111.96
914.727	-31.4
914.905	58.71
915.083	120.15
915.261	64.85
915.439	73.04
915.617	30.04
915.795	-45.74
915.973	17.75
916.151	19.8
916.329	-4.78
916.508	165.2
916.686	-17.07
916.864	-8.87
917.042	34.13
917.22	79.19
917.398	-15.02
917.575	87.38
917.753	-58.03
917.931	3.41
918.109	-35.5
918.287	38.23
918.465	142.68
918.643	126.29
918.821	3.41
918.999	101.72
919.177	-84.65
919.354	60.76
919.532	13.65
919.71	-25.26
919.888	5.46
920.066	-82.6
920.243	-55.98
920.421	-86.7
920.599	-17.07
920.777	44.37
920.954	17.75
921.132	44.37
921.31	11.61
921.488	1.37
921.665	5.46
921.843	-6.83
922.021	42.32
922.198	-6.83
922.376	52.56
922.553	83.28
922.731	-31.4
922.909	-49.83
923.086	-80.55
923.264	157.01
923.441	109.91
923.619	48.47
923.796	-12.97
923.974	-23.21
924.152	83.28
924.329	-10.92
924.507	-47.79
924.684	1.37
924.861	-31.4
925.039	44.37
925.216	42.32
925.394	19.8
925.571	3.41
925.749	34.13
925.926	-107.18
926.103	54.61
926.281	-148.14
926.458	-4.78
926.635	83.28
926.813	134.48
926.99	77.14
927.167	83.28
927.345	52.56
927.522	-70.31
927.699	-62.12
927.876	60.76
928.054	25.94
928.231	3.41
928.408	17.75
928.585	97.62
928.763	48.47
928.94	64.85
929.117	116.05
929.294	-15.02
929.471	-15.02
929.648	54.61
929.825	-25.26
930.003	27.99
930.18	-17.07
930.357	-139.94
930.534	-80.55
930.711	44.37
930.888	36.18
931.065	-72.36
931.242	1.37
931.419	-0.68
931.596	-94.89
931.773	-43.69
931.95	-29.35
932.127	-4.78
932.304	52.56
932.481	93.52
932.658	27.99
932.835	73.04
933.011	38.23
933.188	3.41
933.365	103.76
933.542	3.41
933.719	75.09
933.896	85.33
934.073	5.46
934.249	-31.4
934.426	-49.83
934.603	44.37
934.78	-4.78
934.957	34.13
935.133	105.81
935.31	-49.83
935.487	27.99
935.664	42.32
935.84	-94.89
936.017	85.33
936.194	79.19
936.37	-33.45
936.547	-47.79
936.724	27.99
936.9	60.76
937.077	81.24
937.253	46.42
937.43	-41.64
937.607	-53.93
937.783	89.43
937.96	81.24
938.136	-17.07
938.313	81.24
938.489	-131.75
938.666	-4.78
938.842	9.56
939.019	30.04
939.195	17.75
939.372	27.99
939.548	48.47
939.725	66.9
939.901	60.76
940.077	40.28
940.254	13.65
940.43	-92.84
940.607	66.9
940.783	42.32
940.959	-25.26
941.136	21.85
941.312	-2.73
941.488	83.28
941.665	27.99
941.841	-53.93
942.017	50.52
942.193	-55.98
942.37	-27.31
942.546	75.09
942.722	-39.59
942.898	30.04
943.074	93.52
943.251	21.85
943.427	87.38
943.603	64.85
943.779	38.23
943.955	3.41
944.131	-21.16
944.308	5.46
944.484	60.76
944.66	50.52
944.836	-60.07
945.012	38.23
945.188	77.14
945.364	56.66
945.54	-72.36
945.716	25.94
945.892	-12.97
946.068	17.75
946.244	-109.23
946.42	19.8
946.596	-17.07
946.772	23.89
946.948	-27.31
947.124	-43.69
947.3	13.65
947.475	157.01
947.651	71
947.827	-53.93
948.003	19.8
948.179	-64.17
948.355	-86.7
948.531	15.7
948.706	-21.16
948.882	-41.64
949.058	52.56
949.234	-10.92
949.409	40.28
949.585	-27.31
949.761	-35.5
949.937	30.04
950.112	48.47
950.288	-6.83
950.464	-31.4
950.639	-82.6
950.815	-74.41
950.991	-45.74
951.166	13.65
951.342	27.99
951.518	77.14
951.693	42.32
951.869	17.75
952.044	103.76
952.22	-17.07
952.395	19.8
952.571	-72.36
952.747	27.99
952.922	-113.32
953.098	-4.78
953.273	99.67
953.448	34.13
953.624	-31.4
953.799	30.04
953.975	11.61
954.15	-31.4
954.326	-37.55
954.501	-35.5
954.676	-0.68
954.852	-105.13
955.027	44.37
955.203	114
955.378	68.95
955.553	62.8
955.729	-92.84
955.904	81.24
956.079	-51.88
956.254	7.51
956.43	36.18
956.605	105.81
956.78	-60.07
956.955	75.09
957.131	-8.87
957.306	66.9
957.481	73.04
957.656	-15.02
957.831	-109.22
958.007	71
958.182	42.32
958.357	19.8
958.532	-4.78
958.707	11.61
958.882	-6.83
959.057	30.04
959.232	-68.27
959.407	-35.5
959.582	71
959.757	19.8
959.932	-19.11
960.107	34.13
960.282	-41.64
960.457	48.47
960.632	-96.94
960.807	68.95
960.982	-39.59
961.157	-4.78
961.332	-88.75
961.507	109.91
961.682	68.95
961.857	34.13
962.032	-72.36
962.206	-21.16
962.381	-55.98
962.556	83.28
962.731	48.47
962.906	-45.74
963.081	-25.26
963.255	-47.79
963.43	-0.68
963.605	-0.68
963.78	-53.93
963.954	-39.59
964.129	109.91
964.304	21.85
964.479	15.7
964.653	79.19
964.828	21.85
965.003	-29.35
965.177	101.72
965.352	-21.16
965.526	11.61
965.701	-62.12
965.876	-10.92
966.05	13.65
966.225	15.7
966.399	-4.78
966.574	46.42
966.748	-8.87
966.923	-82.6
967.098	62.8
967.272	77.14
967.446	13.65
967.621	95.57
967.795	-29.35
967.97	-62.12
968.144	19.8
968.319	32.08
968.493	-15.02
968.668	-15.02
968.842	-19.11
969.016	-76.46
969.191	32.08
969.365	-21.16
969.539	-12.97
969.714	3.41
969.888	-49.83
970.062	15.7
970.237	132.44
970.411	-64.17
970.585	-21.16
970.759	-17.07
970.934	46.42
971.108	-47.79
971.282	-101.03
971.456	-8.87
971.63	-29.35
971.805	-74.41
971.979	-39.59
972.153	-15.02
972.327	-72.36
972.501	-98.99
972.675	-55.98
972.849	-19.11
973.024	116.05
973.198	87.38
973.372	-82.6
973.546	3.41
973.72	79.19
973.894	-37.55
974.068	89.43
974.242	95.57
974.416	-47.79
974.59	-27.31
974.764	-74.41
974.938	87.38
975.112	-72.36
975.286	-17.07
975.46	107.86
975.633	-68.27
975.807	103.76
975.981	9.56
976.155	-33.45
976.329	75.09
976.503	11.61
976.677	36.18
976.85	46.42
977.024	-10.92
977.198	77.14
977.372	56.66
977.546	-17.07
977.719	-6.83
977.893	109.91
978.067	75.09
978.241	124.24
978.414	-121.51
978.588	-23.21
978.762	62.8
978.935	34.13
979.109	27.99
979.283	19.8
979.456	27.99
979.63	66.9
979.804	5.46
979.977	-33.45
980.151	-58.03
980.324	23.89
980.498	-25.26
980.671	-41.64
980.845	54.61
981.018	-21.16
981.192	-25.26
981.365	11.61
981.539	75.09
981.712	-43.69
981.886	3.41
982.059	-15.02
982.233	54.61
982.406	-2.73
982.58	-70.31
982.753	27.99
982.926	87.38
983.1	40.28
983.273	109.91
983.446	5.46
983.62	97.62
983.793	23.89
983.966	7.51
984.14	21.85
984.313	-70.31
984.486	36.18
984.66	-90.79
984.833	-2.73
985.006	-82.6
985.179	148.82
985.352	-27.31
985.526	75.09
985.699	-12.97
985.872	62.8
986.045	-144.04
986.218	66.9
986.391	-19.11
986.565	128.34
986.738	-0.68
986.911	122.2
987.084	5.46
987.257	-43.69
987.43	13.65
987.603	-60.07
987.776	17.75
987.949	42.32
988.122	-47.79
988.295	-33.45
988.468	-29.35
988.641	-27.31
988.814	-31.4
988.987	32.08
989.16	17.75
989.333	32.08
989.506	25.94
989.679	-55.98
989.852	-45.74
990.025	103.76
990.197	27.99
990.37	-70.31
990.543	-33.45
990.716	-4.78
990.889	-113.32
991.062	-19.11
991.234	75.09
991.407	-37.55
991.58	-125.61
991.753	-0.68
991.925	-6.83
992.098	52.56
992.271	23.89
992.444	-17.07
992.616	25.94
992.789	105.81
992.962	3.41
993.134	42.32
993.307	13.65
993.479	-144.04
993.652	77.14
993.825	66.9
993.997	-39.59
994.17	13.65
994.342	21.85
994.515	-72.36
994.688	66.9
994.86	73.04
995.033	-115.37
995.205	11.61
995.378	93.52
995.55	42.32
995.723	-88.75
995.895	60.76
996.067	52.56
996.24	44.37
996.412	-43.69
996.585	-129.7
996.757	19.8
996.929	83.28
997.102	-111.27
997.274	71
997.447	48.47
997.619	66.9
997.791	1.37
997.964	-96.94
998.136	-8.87
998.308	111.96
998.48	34.13
998.653	52.56
998.825	36.18
998.997	56.66
999.169	27.99
999.342	130.39
999.514	-4.78
999.686	-17.07
999.858	77.14
1000.03	68.95
1000.202	-80.55
1000.374	15.7
1000.547	-43.69
1000.719	27.99
1000.891	50.52
1001.063	-23.21
1001.235	48.47
1001.407	23.89
1001.579	42.32
1001.751	42.32
1001.923	54.61
1002.095	-25.26
1002.267	64.85
1002.439	9.56
1002.611	-41.64
1002.783	-68.27
1002.955	15.7
1003.127	-84.65
1003.299	-10.92
1003.471	-98.99
1003.643	21.85
1003.815	-25.26
1003.986	9.56
1004.158	19.8
1004.33	-6.83
1004.502	-33.45
1004.674	44.37
1004.846	-29.35
1005.017	38.23
1005.189	-37.55
1005.361	-62.12
1005.533	95.57
1005.704	1.37
1005.876	1.37
1006.048	42.32
1006.22	27.99
1006.391	-98.99
1006.563	27.99
1006.735	-21.16
1006.906	54.61
1007.078	-129.7
1007.25	-86.7
1007.421	-15.02
1007.593	-17.07
1007.764	52.56
1007.936	52.56
1008.108	66.9
1008.279	34.13
1008.451	5.46
1008.622	-53.93
1008.794	-17.07
1008.965	-43.69
1009.137	-41.64
1009.308	64.85
1009.48	21.85
1009.651	3.41
1009.823	46.42
1009.994	130.39
1010.165	9.56
1010.337	30.04
1010.508	66.9
1010.68	-39.59
1010.851	83.28
1011.022	77.14
1011.194	-15.02
1011.365	-53.93
1011.536	66.9
1011.708	-31.4
1011.879	64.85
1012.05	-2.73
1012.222	99.67
1012.393	36.18
1012.564	3.41
1012.735	-23.21
1012.906	58.71
1013.078	75.09
1013.249	75.09
1013.42	99.67
1013.591	-6.83
1013.762	99.67
1013.934	91.48
1014.105	9.56
1014.276	-41.64
1014.447	54.61
1014.618	-19.11
1014.789	-0.68
1014.96	-10.92
1015.131	-0.68
1015.302	71
1015.473	83.28
1015.644	56.66
1015.815	-51.88
1015.986	-49.83
1016.157	-62.12
1016.328	-6.83
1016.499	-60.07
1016.67	21.85
1016.841	42.32
1017.012	-10.92
1017.183	-94.89
1017.354	7.51
1017.525	5.46
1017.696	44.37
1017.867	19.8
1018.037	68.95
1018.208	1.37
1018.379	19.8
1018.55	-0.68
1018.721	-4.78
1018.891	-17.07
1019.062	32.08
1019.233	91.48
1019.404	48.47
1019.574	42.32
1019.745	23.89
1019.916	40.28
1020.087	54.61
1020.257	-74.41
1020.428	44.37
1020.599	-39.59
1020.769	36.18
1020.94	-2.73
1021.11	9.56
1021.281	15.7
1021.452	25.94
1021.622	-31.4
1021.793	-35.5
1021.963	48.47
1022.134	-72.36
1022.305	-53.93
1022.475	-19.11
1022.646	-12.97
1022.816	27.99
1022.987	36.18
1023.157	-8.87
1023.327	-2.73
1023.498	23.89
1023.668	-55.98
1023.839	-76.46
1024.009	-51.88
1024.18	-25.26
1024.35	42.32
1024.52	17.75
1024.691	148.82
1024.861	-64.17
1025.031	109.91
1025.202	73.04
1025.372	17.75
1025.542	-33.45
1025.713	118.1
1025.883	7.51
1026.053	34.13
1026.223	54.61
1026.394	-55.98
1026.564	46.42
1026.734	-41.64
1026.904	-29.35
1027.074	-58.03
1027.245	-111.27
1027.415	124.24
1027.585	27.99
1027.755	-47.79
1027.925	54.61
1028.095	85.33
1028.265	56.66
1028.435	-64.17
1028.606	-27.31
1028.776	95.57
1028.946	126.29
1029.116	71
1029.286	-49.83
1029.456	9.56
1029.626	36.18
1029.796	-29.35
1029.966	54.61
1030.136	32.08
1030.306	19.8
1030.475	71
1030.645	-15.02
1030.815	64.85
1030.985	-133.8
1031.155	95.57
1031.325	1.37
1031.495	71
1031.665	79.19
1031.835	-0.68
1032.004	54.61
1032.174	-107.18
1032.344	-6.83
1032.514	81.24
1032.684	-15.02
1032.853	-94.89
1033.023	77.14
1033.193	5.46
1033.362	-19.11
1033.532	-80.55
1033.702	-25.26
1033.872	-78.51
1034.041	58.71
1034.211	111.96
1034.381	64.85
1034.55	-8.87
1034.72	-23.21
1034.889	-23.21
1035.059	7.51
1035.229	27.99
1035.398	-96.94
1035.568	27.99
1035.737	-74.41
1035.907	-35.5
1036.076	5.46
1036.246	15.7
1036.415	-72.36
1036.585	-17.07
1036.754	46.42
1036.924	136.53
1037.093	25.94
1037.263	-2.73
1037.432	-12.97
1037.601	-33.45
1037.771	-84.65
1037.94	40.28
1038.11	-39.59
1038.279	-4.78
1038.448	118.1
1038.618	15.7
1038.787	40.28
1038.956	-8.87
1039.126	13.65
1039.295	60.76
1039.464	-27.31
1039.633	85.33
1039.803	11.61
1039.972	165.2
1040.141	-84.65
1040.31	38.23
1040.479	-29.35
1040.649	46.42
1040.818	-62.12
1040.987	9.56
1041.156	87.38
1041.325	-25.26
1041.494	7.51
1041.663	40.28
1041.833	-66.22
1042.002	30.04
1042.171	-21.16
1042.34	34.13
1042.509	32.08
1042.678	-103.08
