Data from LSP86_F8_Subt2_17-08-01-789.txt Node
Date: Tue Aug 22 17:08:01 EDT 2023
User: Emmanuel
Spectrometer: USB4A00615
Scans to average: 1
Trigger mode: 1
Integration Time (sec): 5.000000E-3
Electric dark correction enabled: true
Boxcar width: 0
XAxis mode: Wavelengths
Number of Pixels in Spectrum: 3648
>>>>>Begin Spectral Data<<<<<
346.606	10.24
346.818	10.24
347.029	10.24
347.241	-30.72
347.452	-26.62
347.664	45.06
347.876	-26.62
348.087	61.44
348.299	-110.59
348.51	53.25
348.722	40.96
348.933	-8.19
349.145	-38.91
349.356	-18.43
349.568	86.01
349.779	-2.05
349.991	-81.92
350.202	45.06
350.414	-32.77
350.625	-14.34
350.836	-10.24
351.048	-6.14
351.259	36.86
351.471	-79.87
351.682	20.48
351.893	-28.67
352.105	-90.11
352.316	43.01
352.527	55.3
352.739	57.34
352.95	40.96
353.161	-32.77
353.372	-100.35
353.584	16.38
353.795	26.62
354.006	14.34
354.217	4.1
354.429	-2.05
354.64	-4.1
354.851	-16.38
355.062	81.92
355.274	98.3
355.485	10.24
355.696	-20.48
355.907	94.21
356.118	-53.25
356.329	12.29
356.54	-8.19
356.752	71.68
356.963	22.53
357.174	61.44
357.385	-57.34
357.596	34.82
357.807	12.29
358.018	-86.01
358.229	126.97
358.44	-40.96
358.651	12.29
358.862	-47.1
359.073	26.62
359.284	98.3
359.495	-28.67
359.706	-28.67
359.917	81.92
360.128	-12.29
360.339	57.34
360.55	-51.2
360.761	4.1
360.972	71.68
361.182	38.91
361.393	-55.3
361.604	-139.26
361.815	-83.97
362.026	14.34
362.237	-26.62
362.447	-16.38
362.658	-30.72
362.869	-28.67
363.08	8.19
363.291	16.38
363.501	-8.19
363.712	-8.19
363.923	28.67
364.134	-34.82
364.344	-16.38
364.555	65.53
364.766	36.86
364.976	47.1
365.187	126.97
365.398	-18.43
365.608	-40.96
365.819	34.82
366.03	26.62
366.24	-30.72
366.451	-49.15
366.662	116.73
366.872	-14.34
367.083	12.29
367.293	-40.96
367.504	43.01
367.714	-38.91
367.925	-24.58
368.135	-188.41
368.346	10.24
368.557	-0
368.767	77.82
368.977	-55.3
369.188	61.44
369.398	-88.06
369.609	-4.1
369.819	-40.96
370.03	10.24
370.24	86.01
370.451	26.62
370.661	4.1
370.871	-16.38
371.082	47.1
371.292	-22.53
371.502	-22.53
371.713	73.73
371.923	67.58
372.133	34.82
372.344	-75.77
372.554	65.53
372.764	69.63
372.975	4.1
373.185	30.72
373.395	18.43
373.605	-43.01
373.816	-10.24
374.026	-81.92
374.236	-40.96
374.446	26.62
374.656	24.58
374.867	65.53
375.077	45.06
375.287	-57.34
375.497	-20.48
375.707	-47.1
375.917	71.68
376.127	28.67
376.338	-75.77
376.548	12.29
376.758	77.82
376.968	40.96
377.178	-2.05
377.388	-108.54
377.598	-10.24
377.808	110.59
378.018	49.15
378.228	4.1
378.438	-40.96
378.648	24.58
378.858	40.96
379.068	-24.58
379.278	69.63
379.488	16.38
379.698	186.37
379.908	-75.77
380.118	34.82
380.327	22.53
380.537	12.29
380.747	-28.67
380.957	16.38
381.167	-4.1
381.377	-49.15
381.587	77.82
381.796	47.1
382.006	-94.21
382.216	-6.14
382.426	-2.05
382.636	-104.45
382.845	-40.96
383.055	69.63
383.265	45.06
383.475	-47.1
383.684	26.62
383.894	65.53
384.104	129.02
384.313	-28.67
384.523	53.25
384.733	-8.19
384.942	-51.2
385.152	55.3
385.362	-6.14
385.571	2.05
385.781	108.54
385.991	-108.54
386.2	-57.34
386.41	-61.44
386.619	-32.77
386.829	-63.49
387.038	-6.14
387.248	-8.19
387.457	61.44
387.667	-18.43
387.876	10.24
388.086	-90.11
388.295	43.01
388.505	-63.49
388.714	26.62
388.924	8.19
389.133	-20.48
389.343	45.06
389.552	-22.53
389.762	-43.01
389.971	-18.43
390.18	-16.38
390.39	6.14
390.599	-24.58
390.808	-71.68
391.018	-8.19
391.227	-2.05
391.436	-8.19
391.646	18.43
391.855	57.34
392.064	-18.43
392.274	69.63
392.483	38.91
392.692	-28.67
392.901	-8.19
393.111	-24.58
393.32	-16.38
393.529	36.86
393.738	49.15
393.947	43.01
394.157	26.62
394.366	57.34
394.575	-88.06
394.784	4.1
394.993	-16.38
395.202	24.58
395.411	75.77
395.62	118.78
395.83	-55.3
396.039	0
396.248	-20.48
396.457	-16.38
396.666	28.67
396.875	-110.59
397.084	-38.91
397.293	30.72
397.502	2.05
397.711	40.96
397.92	-0
398.129	16.38
398.338	51.2
398.547	155.65
398.756	-18.43
398.965	49.15
399.174	38.91
399.382	30.72
399.591	-12.29
399.8	88.06
400.009	-20.48
400.218	-75.77
400.427	38.91
400.636	55.3
400.844	-86.01
401.053	-94.21
401.262	-71.68
401.471	6.14
401.68	-20.48
401.888	-22.53
402.097	-69.63
402.306	-10.24
402.515	-14.34
402.723	53.25
402.932	-36.86
403.141	73.73
403.35	51.2
403.558	-96.25
403.767	-67.58
403.976	-0
404.184	36.86
404.393	-67.58
404.602	22.53
404.81	22.53
405.019	16.38
405.227	-61.44
405.436	55.3
405.645	106.49
405.853	-47.1
406.062	75.77
406.27	-2.05
406.479	-4.1
406.687	32.77
406.896	100.35
407.104	-40.96
407.313	51.2
407.521	-51.2
407.73	22.53
407.938	45.06
408.147	-2.05
408.355	-47.1
408.563	55.3
408.772	2.05
408.98	22.53
409.189	-6.14
409.397	57.34
409.605	69.63
409.814	-16.38
410.022	-63.49
410.23	18.43
410.439	-49.15
410.647	-34.82
410.855	-73.73
411.064	45.06
411.272	-14.34
411.48	43.01
411.688	51.2
411.897	-38.91
412.105	28.67
412.313	-2.05
412.521	126.97
412.73	-75.77
412.938	-2.05
413.146	-90.11
413.354	16.38
413.562	-18.43
413.77	26.62
413.979	-57.34
414.187	-61.44
414.395	20.48
414.603	-8.19
414.811	-22.53
415.019	77.82
415.227	-77.82
415.435	83.97
415.643	8.19
415.851	-61.44
416.059	-102.4
416.267	43.01
416.475	10.24
416.683	65.53
416.891	-53.25
417.099	47.1
417.307	-38.91
417.515	-59.39
417.723	59.39
417.931	-24.58
418.139	4.1
418.347	63.49
418.555	-120.83
418.763	16.38
418.971	59.39
419.179	-47.1
419.386	90.11
419.594	14.34
419.802	-67.58
420.01	143.36
420.218	38.91
420.426	-47.1
420.633	38.91
420.841	69.63
421.049	26.62
421.257	108.54
421.464	-59.39
421.672	92.16
421.88	65.53
422.088	81.92
422.295	110.59
422.503	12.29
422.711	24.58
422.918	75.77
423.126	6.14
423.334	-8.19
423.541	-2.05
423.749	14.34
423.956	-28.67
424.164	77.82
424.372	-92.16
424.579	-24.58
424.787	57.34
424.994	24.58
425.202	69.63
425.409	-14.34
425.617	106.49
425.824	96.25
426.032	-98.3
426.239	4.1
426.447	34.82
426.654	-26.62
426.862	86.01
427.069	-45.06
427.277	22.53
427.484	-6.14
427.692	34.82
427.899	47.1
428.106	53.25
428.314	-51.2
428.521	10.24
428.728	59.39
428.936	-36.86
429.143	28.67
429.351	-30.72
429.558	12.29
429.765	-2.05
429.972	26.62
430.18	43.01
430.387	34.82
430.594	24.58
430.801	43.01
431.009	-36.86
431.216	96.25
431.423	-30.72
431.63	71.68
431.838	75.77
432.045	-43.01
432.252	147.45
432.459	-28.67
432.666	24.58
432.873	-38.91
433.081	-14.34
433.288	-16.38
433.495	12.29
433.702	-18.43
433.909	-24.58
434.116	0
434.323	16.38
434.53	16.38
434.737	-36.86
434.944	-49.15
435.151	-88.06
435.358	-24.58
435.565	34.82
435.772	16.38
435.979	28.67
436.186	-32.77
436.393	40.96
436.6	26.62
436.807	30.72
437.014	61.44
437.221	-12.29
437.428	-77.82
437.635	-65.54
437.841	-118.78
438.048	126.97
438.255	4.1
438.462	116.73
438.669	4.1
438.876	65.53
439.082	57.34
439.289	40.96
439.496	12.29
439.703	-4.1
439.91	28.67
440.116	65.53
440.323	-14.34
440.53	92.16
440.737	-79.87
440.943	112.64
441.15	38.91
441.357	-65.54
441.563	-22.53
441.77	8.19
441.977	-55.3
442.183	-10.24
442.39	36.86
442.597	112.64
442.803	65.53
443.01	53.25
443.216	61.44
443.423	59.39
443.63	-73.73
443.836	-18.43
444.043	-16.38
444.249	-24.58
444.456	-36.86
444.662	-24.58
444.869	157.69
445.075	-26.62
445.282	14.34
445.488	26.62
445.695	102.4
445.901	57.34
446.107	-92.16
446.314	47.1
446.52	65.53
446.727	-18.43
446.933	73.73
447.139	-24.58
447.346	-8.19
447.552	-57.34
447.759	-100.35
447.965	86.01
448.171	24.58
448.378	63.49
448.584	-77.82
448.79	-20.48
448.996	-24.58
449.203	-65.54
449.409	2.05
449.615	106.49
449.821	-16.38
450.028	2.05
450.234	104.45
450.44	86.01
450.646	-32.77
450.852	106.49
451.059	86.01
451.265	81.92
451.471	-63.49
451.677	108.54
451.883	-38.91
452.089	-51.2
452.295	2.05
452.502	51.2
452.708	49.15
452.914	47.1
453.12	34.82
453.326	2.05
453.532	-10.24
453.738	-116.73
453.944	18.43
454.15	53.25
454.356	-59.39
454.562	30.72
454.768	-69.63
454.974	106.49
455.18	65.53
455.386	45.06
455.592	-26.62
455.798	-94.21
456.003	53.25
456.209	104.45
456.415	-83.97
456.621	-61.44
456.827	-26.62
457.033	45.06
457.239	51.2
457.444	12.29
457.65	-83.97
457.856	67.58
458.062	-34.82
458.268	-45.06
458.473	-26.62
458.679	53.25
458.885	34.82
459.091	-10.24
459.296	-16.38
459.502	24.58
459.708	-51.2
459.914	-28.67
460.119	-43.01
460.325	-12.29
460.531	71.68
460.736	-57.34
460.942	22.53
461.147	69.63
461.353	8.19
461.559	53.25
461.764	-32.77
461.97	-69.63
462.175	-118.78
462.381	96.25
462.587	10.24
462.792	43.01
462.998	0
463.203	-4.1
463.409	71.68
463.614	8.19
463.82	14.34
464.025	141.31
464.231	77.82
464.436	38.91
464.641	-26.62
464.847	61.44
465.052	-83.97
465.258	45.06
465.463	10.24
465.669	36.86
465.874	59.39
466.079	143.36
466.285	-43.01
466.49	-2.05
466.695	-16.38
466.901	16.38
467.106	6.14
467.311	18.43
467.516	-45.06
467.722	-40.96
467.927	-63.49
468.132	-51.2
468.338	20.48
468.543	28.67
468.748	-10.24
468.953	-10.24
469.158	75.77
469.364	28.67
469.569	57.34
469.774	40.96
469.979	24.58
470.184	-45.06
470.389	-38.91
470.594	-40.96
470.8	-40.96
471.005	-28.67
471.21	-65.54
471.415	57.34
471.62	-49.15
471.825	14.34
472.03	-61.44
472.235	0
472.44	-6.14
472.645	65.53
472.85	-96.25
473.055	-45.06
473.26	10.24
473.465	-6.14
473.67	18.43
473.875	20.48
474.08	8.19
474.285	24.58
474.49	-10.24
474.695	75.77
474.899	26.62
475.104	6.14
475.309	75.77
475.514	69.63
475.719	53.25
475.924	-43.01
476.128	47.1
476.333	0
476.538	65.53
476.743	-63.49
476.948	-57.34
477.152	81.92
477.357	-67.58
477.562	2.05
477.767	75.77
477.971	104.45
478.176	-73.73
478.381	-59.39
478.585	-53.25
478.79	-45.06
478.995	40.96
479.199	10.24
479.404	-22.53
479.609	-67.58
479.813	118.78
480.018	-4.1
480.223	-4.1
480.427	126.97
480.632	53.25
480.836	-16.38
481.041	71.68
481.245	34.82
481.45	26.62
481.654	-67.58
481.859	67.58
482.063	16.38
482.268	59.39
482.472	38.91
482.677	75.77
482.881	-20.48
483.086	141.31
483.29	53.25
483.495	22.53
483.699	104.45
483.903	65.53
484.108	126.97
484.312	53.25
484.517	86.01
484.721	-2.05
484.925	-59.39
485.13	-32.77
485.334	12.29
485.538	36.86
485.743	-22.53
485.947	32.77
486.151	8.19
486.355	-24.58
486.56	38.91
486.764	43.01
486.968	-28.67
487.172	45.06
487.377	-79.87
487.581	34.82
487.785	40.96
487.989	90.11
488.193	-45.06
488.397	20.48
488.602	79.87
488.806	129.02
489.01	20.48
489.214	-49.15
489.418	79.87
489.622	34.82
489.826	22.53
490.03	-30.72
490.234	-22.53
490.438	-32.77
490.642	-26.62
490.846	-47.1
491.05	-2.05
491.254	20.48
491.458	28.67
491.662	49.15
491.866	4.1
492.07	-63.49
492.274	30.72
492.478	-53.25
492.682	45.06
492.886	-6.14
493.09	79.87
493.294	-28.67
493.498	43.01
493.701	-55.3
493.905	61.44
494.109	-36.86
494.313	-12.29
494.517	77.82
494.721	45.06
494.924	2.05
495.128	155.65
495.332	69.63
495.536	-28.67
495.739	98.3
495.943	18.43
496.147	83.97
496.351	-2.05
496.554	-67.58
496.758	-92.16
496.962	14.34
497.165	-8.19
497.369	-6.14
497.573	-10.24
497.776	69.63
497.98	53.25
498.184	43.01
498.387	92.16
498.591	51.2
498.794	6.14
498.998	-6.14
499.202	12.29
499.405	57.34
499.609	-4.1
499.812	73.73
500.016	-102.4
500.219	79.87
500.423	104.45
500.626	81.92
500.83	-24.58
501.033	141.31
501.237	180.22
501.44	155.65
501.643	106.49
501.847	30.72
502.05	40.96
502.254	12.29
502.457	-34.82
502.66	-6.14
502.864	-49.15
503.067	-73.73
503.271	-14.34
503.474	16.38
503.677	22.53
503.88	6.14
504.084	12.29
504.287	16.38
504.49	32.77
504.694	57.34
504.897	116.73
505.1	325.63
505.303	206.84
505.507	112.64
505.71	116.73
505.913	100.35
506.116	20.48
506.319	-14.34
506.522	77.82
506.726	106.49
506.929	288.76
507.132	51.2
507.335	12.29
507.538	51.2
507.741	59.39
507.944	30.72
508.147	-59.39
508.35	-81.92
508.553	90.11
508.756	-45.06
508.959	-75.77
509.163	-24.58
509.366	-18.43
509.569	-79.87
509.771	14.34
509.974	-73.73
510.177	57.34
510.38	-40.96
510.583	65.53
510.786	75.77
510.989	26.62
511.192	65.53
511.395	12.29
511.598	-77.82
511.801	102.4
512.004	24.58
512.206	90.11
512.409	-18.43
512.612	20.48
512.815	73.73
513.018	96.25
513.22	-20.48
513.423	18.43
513.626	-20.48
513.829	18.43
514.032	51.2
514.234	-57.34
514.437	77.82
514.64	-49.15
514.842	-26.62
515.045	-65.54
515.248	100.35
515.45	34.82
515.653	59.39
515.856	2.05
516.058	-0
516.261	-63.49
516.464	22.53
516.666	61.44
516.869	-2.05
517.071	-118.78
517.274	-47.1
517.477	53.25
517.679	-36.86
517.882	-30.72
518.084	24.58
518.287	-28.67
518.489	-2.05
518.692	77.82
518.894	34.82
519.097	-28.67
519.299	63.49
519.501	30.72
519.704	-16.38
519.906	57.34
520.109	30.72
520.311	-22.53
520.514	71.68
520.716	-55.3
520.918	71.68
521.121	112.64
521.323	108.54
521.525	18.43
521.728	57.34
521.93	104.45
522.132	970.74
522.335	192.51
522.537	163.84
522.739	18.43
522.941	77.82
523.144	-32.77
523.346	22.53
523.548	12.29
523.75	73.73
523.952	-18.43
524.155	73.73
524.357	-40.96
524.559	4.1
524.761	-53.25
524.963	77.82
525.165	90.11
525.368	-20.48
525.57	63.49
525.772	55.3
525.974	-12.29
526.176	-10.24
526.378	-14.34
526.58	-12.29
526.782	-71.68
526.984	-86.01
527.186	24.58
527.388	6.14
527.59	110.59
527.792	102.4
527.994	63.49
528.196	-26.62
528.398	71.68
528.6	-8.19
528.802	47.1
529.004	30.72
529.206	-22.53
529.408	-8.19
529.609	-8.19
529.811	49.15
530.013	14.34
530.215	20.48
530.417	108.54
530.619	20.48
530.821	20.48
531.022	-69.63
531.224	51.2
531.426	71.68
531.628	49.15
531.829	30.72
532.031	75.77
532.233	-30.72
532.435	22.53
532.636	-83.97
532.838	153.6
533.04	36.86
533.241	-4.1
533.443	-4.1
533.645	26.62
533.846	-77.82
534.048	-8.19
534.25	-45.06
534.451	30.72
534.653	59.39
534.855	79.87
535.056	-81.92
535.258	24.58
535.459	104.45
535.661	20.48
535.862	-155.65
536.064	-36.86
536.265	-18.43
536.467	-43.01
536.668	49.15
536.87	-18.43
537.071	30.72
537.273	75.77
537.474	-26.62
537.676	2.05
537.877	-8.19
538.078	-65.54
538.28	-2.05
538.481	-8.19
538.683	61.44
538.884	10.24
539.085	30.72
539.287	-61.44
539.488	63.49
539.689	-12.29
539.891	30.72
540.092	30.72
540.293	2.05
540.495	96.25
540.696	-10.24
540.897	59.39
541.098	40.96
541.3	-55.3
541.501	-40.96
541.702	88.06
541.903	75.77
542.104	12.29
542.306	53.25
542.507	-4.1
542.708	69.63
542.909	20.48
543.11	2.05
543.311	-34.82
543.512	43.01
543.713	16.38
543.915	-47.1
544.116	-81.92
544.317	63.49
544.518	30.72
544.719	-22.53
544.92	-34.82
545.121	30.72
545.322	-12.29
545.523	-26.62
545.724	-88.06
545.925	116.73
546.126	49.15
546.327	-40.96
546.528	114.69
546.729	-40.96
546.929	8.19
547.13	-4.1
547.331	10.24
547.532	100.35
547.733	-45.06
547.934	94.21
548.135	-45.06
548.336	63.49
548.536	28.67
548.737	40.96
548.938	77.82
549.139	157.69
549.34	141.31
549.54	-20.48
549.741	14.34
549.942	61.44
550.143	-20.48
550.343	73.73
550.544	14.34
550.745	81.92
550.945	83.97
551.146	10.24
551.347	-79.87
551.547	-10.24
551.748	34.82
551.949	-22.53
552.149	126.97
552.35	-2.05
552.551	73.73
552.751	-24.58
552.952	116.73
553.152	77.82
553.353	-32.77
553.553	-8.19
553.754	79.87
553.954	-67.58
554.155	-124.93
554.356	43.01
554.556	-0
554.756	22.53
554.957	-71.68
555.157	-14.34
555.358	63.49
555.558	-40.96
555.759	-24.58
555.959	75.77
556.159	-34.82
556.36	69.63
556.56	88.06
556.761	100.35
556.961	81.92
557.161	75.77
557.362	83.97
557.562	67.58
557.762	-12.29
557.963	8.19
558.163	30.72
558.363	14.34
558.563	-36.86
558.764	20.48
558.964	161.79
559.164	-57.34
559.364	61.44
559.565	-49.15
559.765	57.34
559.965	71.68
560.165	20.48
560.365	-2.05
560.565	-49.15
560.766	10.24
560.966	22.53
561.166	-4.1
561.366	139.26
561.566	61.44
561.766	34.82
561.966	-45.06
562.166	57.34
562.366	53.25
562.566	120.83
562.766	-26.62
562.966	26.62
563.166	55.3
563.366	90.11
563.566	-108.54
563.766	24.58
563.966	122.88
564.166	104.45
564.366	-24.58
564.566	-18.43
564.766	28.67
564.966	-67.58
565.166	14.34
565.366	18.43
565.565	4.1
565.765	4.1
565.965	-75.77
566.165	-22.53
566.365	-4.1
566.565	69.63
566.764	20.48
566.964	-16.38
567.164	-77.82
567.364	14.34
567.564	26.62
567.763	-47.1
567.963	-20.48
568.163	-77.82
568.362	71.68
568.562	90.11
568.762	-18.43
568.961	45.06
569.161	-12.29
569.361	65.53
569.56	20.48
569.76	-6.14
569.96	51.2
570.159	14.34
570.359	-6.14
570.558	63.49
570.758	36.86
570.958	-2.05
571.157	94.21
571.357	-0
571.556	0
571.756	24.58
571.955	106.49
572.155	34.82
572.354	-24.58
572.554	28.67
572.753	73.73
572.953	122.88
573.152	-24.58
573.351	26.62
573.551	-24.58
573.75	-38.91
573.95	6.14
574.149	112.64
574.348	-4.1
574.548	26.62
574.747	-126.97
574.946	124.93
575.146	22.53
575.345	-36.86
575.544	-34.82
575.744	94.21
575.943	8.19
576.142	65.53
576.342	67.58
576.541	18.43
576.74	-65.54
576.939	69.63
577.138	8.19
577.338	10.24
577.537	-14.34
577.736	116.73
577.935	20.48
578.134	14.34
578.333	51.2
578.533	55.3
578.732	43.01
578.931	8.19
579.13	100.35
579.329	-65.54
579.528	-40.96
579.727	59.39
579.926	28.67
580.125	-30.72
580.324	18.43
580.523	-73.73
580.722	32.77
580.921	10.24
581.12	-6.14
581.319	6.14
581.518	18.43
581.717	30.72
581.916	-98.3
582.115	59.39
582.314	-77.82
582.513	-26.62
582.712	-22.53
582.911	-22.53
583.109	34.82
583.308	-4.1
583.507	-47.1
583.706	2.05
583.905	-20.48
584.104	10.24
584.302	94.21
584.501	0
584.7	-49.15
584.899	26.62
585.098	-26.62
585.296	43.01
585.495	40.96
585.694	-14.34
585.892	51.2
586.091	-65.54
586.29	-22.53
586.488	141.31
586.687	30.72
586.886	55.3
587.084	61.44
587.283	-67.58
587.482	90.11
587.68	71.68
587.879	81.92
588.077	-14.34
588.276	16.38
588.475	-22.53
588.673	-22.53
588.872	73.73
589.07	45.06
589.269	26.62
589.467	-67.58
589.666	40.96
589.864	30.72
590.063	26.62
590.261	32.77
590.46	51.2
590.658	96.25
590.857	-6.14
591.055	71.68
591.253	0
591.452	-57.34
591.65	-38.91
591.848	32.77
592.047	-45.06
592.245	-10.24
592.444	114.69
592.642	24.58
592.84	77.82
593.038	-18.43
593.237	-10.24
593.435	61.44
593.633	-75.77
593.832	-65.54
594.03	-69.63
594.228	-32.77
594.426	92.16
594.624	43.01
594.823	16.38
595.021	40.96
595.219	24.58
595.417	92.16
595.615	-59.39
595.813	14.34
596.012	116.73
596.21	-20.48
596.408	-0
596.606	102.4
596.804	47.1
597.002	-32.77
597.2	-49.15
597.398	-38.91
597.596	34.82
597.794	-30.72
597.992	18.43
598.19	-8.19
598.388	102.4
598.586	219.13
598.784	2.05
598.982	-69.63
599.18	88.06
599.378	81.92
599.576	-34.82
599.774	47.1
599.972	57.34
600.17	43.01
600.368	-26.62
600.565	-92.16
600.763	137.21
600.961	18.43
601.159	-4.1
601.357	59.39
601.555	16.38
601.752	30.72
601.95	92.16
602.148	-135.17
602.346	-14.34
602.544	40.96
602.741	26.62
602.939	32.77
603.137	32.77
603.334	-34.82
603.532	12.29
603.73	-28.67
603.927	65.53
604.125	-18.43
604.323	12.29
604.52	-10.24
604.718	-6.14
604.916	-4.1
605.113	-32.77
605.311	-45.06
605.508	100.35
605.706	59.39
605.904	-26.62
606.101	34.82
606.299	12.29
606.496	-45.06
606.694	47.1
606.891	-6.14
607.089	36.86
607.286	16.38
607.484	10.24
607.681	-51.2
607.879	24.58
608.076	12.29
608.273	-20.48
608.471	-61.44
608.668	69.63
608.866	32.77
609.063	10.24
609.26	49.15
609.458	-18.43
609.655	32.77
609.852	-10.24
610.05	55.3
610.247	98.3
610.444	61.44
610.642	-71.68
610.839	32.77
611.036	57.34
611.233	30.72
611.431	59.39
611.628	-6.14
611.825	98.3
612.022	47.1
612.22	10.24
612.417	-34.82
612.614	-24.58
612.811	20.48
613.008	47.1
613.205	34.82
613.402	-90.11
613.6	-61.44
613.797	-55.3
613.994	102.4
614.191	-10.24
614.388	24.58
614.585	-67.58
614.782	16.38
614.979	-4.1
615.176	16.38
615.373	32.77
615.57	-24.58
615.767	71.68
615.964	90.11
616.161	-16.38
616.358	57.34
616.555	-71.68
616.752	28.67
616.949	43.01
617.146	-53.25
617.343	14.34
617.539	-2.05
617.736	118.78
617.933	55.3
618.13	-14.34
618.327	-4.1
618.524	57.34
618.721	36.86
618.917	63.49
619.114	45.06
619.311	-53.25
619.508	24.58
619.704	-79.87
619.901	-65.54
620.098	59.39
620.295	47.1
620.491	57.34
620.688	6.14
620.885	63.49
621.081	-8.19
621.278	-59.39
621.475	77.82
621.671	-96.25
621.868	-114.69
622.065	79.87
622.261	116.73
622.458	67.58
622.655	-10.24
622.851	100.35
623.048	-8.19
623.244	45.06
623.441	-83.97
623.637	75.77
623.834	2.05
624.03	57.34
624.227	-49.15
624.423	30.72
624.62	67.58
624.816	24.58
625.013	-92.16
625.209	18.43
625.406	49.15
625.602	49.15
625.798	67.58
625.995	-69.63
626.191	-53.25
626.388	-2.05
626.584	86.01
626.78	-30.72
626.977	-79.87
627.173	20.48
627.369	14.34
627.566	-43.01
627.762	55.3
627.958	145.41
628.154	40.96
628.351	-4.1
628.547	47.1
628.743	45.06
628.939	2.05
629.136	-2.05
629.332	-45.06
629.528	-53.25
629.724	43.01
629.92	-53.25
630.116	-129.02
630.313	36.86
630.509	22.53
630.705	-16.38
630.901	-14.34
631.097	-2.05
631.293	75.77
631.489	-20.48
631.685	71.68
631.881	-38.91
632.077	-8.19
632.273	22.53
632.469	20.48
632.665	51.2
632.861	-34.82
633.057	108.54
633.253	-61.44
633.449	-14.34
633.645	77.82
633.841	22.53
634.037	47.1
634.233	108.54
634.429	-12.29
634.625	32.77
634.821	-26.62
635.017	-26.62
635.212	81.92
635.408	-12.29
635.604	61.44
635.8	10.24
635.996	-24.58
636.191	-16.38
636.387	-2.05
636.583	57.34
636.779	-114.69
636.975	-34.82
637.17	-36.86
637.366	-6.14
637.562	-43.01
637.757	0
637.953	26.62
638.149	40.96
638.345	47.1
638.54	-6.14
638.736	-40.96
638.931	-10.24
639.127	-34.82
639.323	-0
639.518	8.19
639.714	61.44
639.909	34.82
640.105	137.21
640.301	40.96
640.496	22.53
640.692	-30.72
640.887	24.58
641.083	69.63
641.278	-102.4
641.474	40.96
641.669	24.58
641.865	38.91
642.06	-10.24
642.256	24.58
642.451	-73.73
642.646	10.24
642.842	-18.43
643.037	12.29
643.233	-10.24
643.428	36.86
643.623	36.86
643.819	-24.58
644.014	61.44
644.209	24.58
644.405	-43.01
644.6	-40.96
644.795	51.2
644.99	28.67
645.186	28.67
645.381	-86.01
645.576	-6.14
645.771	-14.34
645.967	38.91
646.162	73.73
646.357	-0
646.552	-43.01
646.747	-26.62
646.943	30.72
647.138	-49.15
647.333	-28.67
647.528	63.49
647.723	-73.73
647.918	34.82
648.113	157.69
648.308	-34.82
648.504	-59.39
648.699	112.64
648.894	-26.62
649.089	30.72
649.284	-59.39
649.479	-55.3
649.674	57.34
649.869	-32.77
650.064	-24.58
650.259	20.48
650.454	32.77
650.649	-47.1
650.844	24.58
651.038	55.3
651.233	-49.15
651.428	45.06
651.623	-40.96
651.818	24.58
652.013	43.01
652.208	24.58
652.403	-14.34
652.597	24.58
652.792	-40.96
652.987	32.77
653.182	-100.35
653.377	26.62
653.571	20.48
653.766	32.77
653.961	14.34
654.156	-65.54
654.35	-73.73
654.545	36.86
654.74	-108.54
654.935	73.73
655.129	0
655.324	-18.43
655.519	-77.82
655.713	-12.29
655.908	38.91
656.102	10.24
656.297	-61.44
656.492	-30.72
656.686	12.29
656.881	38.91
657.075	-57.34
657.27	45.06
657.464	71.68
657.659	30.72
657.854	16.38
658.048	-2.05
658.243	-79.87
658.437	151.55
658.631	-14.34
658.826	67.58
659.02	8.19
659.215	57.34
659.409	2.05
659.604	59.39
659.798	-28.67
659.992	-92.16
660.187	-20.48
660.381	-6.14
660.576	-133.12
660.77	106.49
660.964	-38.91
661.159	71.68
661.353	-94.21
661.547	24.58
661.742	22.53
661.936	86.01
662.13	-10.24
662.324	129.02
662.519	67.58
662.713	-4.1
662.907	-38.91
663.101	-61.44
663.295	-20.48
663.49	-24.58
663.684	-43.01
663.878	-86.01
664.072	-143.36
664.266	8.19
664.46	-69.63
664.654	-38.91
664.849	-14.34
665.043	6.14
665.237	12.29
665.431	83.97
665.625	-28.67
665.819	14.34
666.013	-12.29
666.207	83.97
666.401	16.38
666.595	51.2
666.789	43.01
666.983	-75.77
667.177	4.1
667.371	-98.3
667.565	-20.48
667.759	-67.58
667.953	-20.48
668.147	-79.87
668.34	-28.67
668.534	20.48
668.728	12.29
668.922	-45.06
669.116	-20.48
669.31	-47.1
669.504	-12.29
669.697	57.34
669.891	20.48
670.085	-12.29
670.279	-63.49
670.473	20.48
670.666	-20.48
670.86	30.72
671.054	-38.91
671.248	-26.62
671.441	51.2
671.635	-0
671.829	-61.44
672.022	16.38
672.216	26.62
672.41	18.43
672.603	4.1
672.797	116.73
672.99	8.19
673.184	-12.29
673.378	40.96
673.571	34.82
673.765	-0
673.958	63.49
674.152	-4.1
674.345	20.48
674.539	34.82
674.733	69.63
674.926	-161.79
675.12	43.01
675.313	38.91
675.506	14.34
675.7	-30.72
675.893	104.45
676.087	28.67
676.28	59.39
676.474	59.39
676.667	28.67
676.86	20.48
677.054	8.19
677.247	-51.2
677.441	110.59
677.634	-71.68
677.827	-16.38
678.02	77.82
678.214	59.39
678.407	96.25
678.6	20.48
678.794	14.34
678.987	96.25
679.18	-22.53
679.373	20.48
679.567	45.06
679.76	-24.58
679.953	-12.29
680.146	38.91
680.339	-73.73
680.533	-59.39
680.726	-34.82
680.919	-86.01
681.112	-10.24
681.305	116.73
681.498	10.24
681.691	94.21
681.884	-18.43
682.077	-6.14
682.271	32.77
682.464	73.73
682.657	28.67
682.85	63.49
683.043	-102.4
683.236	86.01
683.429	-2.05
683.622	8.19
683.815	-32.77
684.008	-26.62
684.201	-49.15
684.393	14.34
684.586	40.96
684.779	65.53
684.972	49.15
685.165	96.25
685.358	28.67
685.551	22.53
685.744	16.38
685.937	108.54
686.129	49.15
686.322	28.67
686.515	-67.58
686.708	28.67
686.901	22.53
687.093	-112.64
687.286	22.53
687.479	57.34
687.672	102.4
687.864	-73.73
688.057	38.91
688.25	32.77
688.442	43.01
688.635	-47.1
688.828	-77.82
689.02	12.29
689.213	45.06
689.406	-45.06
689.598	-81.92
689.791	-0
689.984	20.48
690.176	-0
690.369	-38.91
690.561	8.19
690.754	-102.4
690.946	90.11
691.139	0
691.331	135.17
691.524	53.25
691.716	69.63
691.909	8.19
692.101	-16.38
692.294	-24.58
692.486	-38.91
692.679	-45.06
692.871	12.29
693.063	-53.25
693.256	18.43
693.448	-8.19
693.641	20.48
693.833	149.5
694.025	38.91
694.218	18.43
694.41	75.77
694.602	-40.96
694.795	57.34
694.987	167.93
695.179	6852.5
695.372	14055.21
695.564	7747.47
695.756	5986.21
695.948	1814.5
696.14	272.38
696.333	137.21
696.525	-67.58
696.717	20.48
696.909	-63.49
697.101	-137.21
697.294	-53.25
697.486	-2.05
697.678	18.43
697.87	-22.53
698.062	4.1
698.254	-24.58
698.446	-8.19
698.638	49.15
698.83	40.96
699.022	-49.15
699.215	86.01
699.407	30.72
699.599	32.77
699.791	-22.53
699.983	51.2
700.175	2.05
700.367	-47.1
700.558	-32.77
700.75	4.1
700.942	-26.62
701.134	55.3
701.326	-20.48
701.518	-126.97
701.71	-36.86
701.902	22.53
702.094	-22.53
702.286	141.31
702.477	-47.1
702.669	-40.96
702.861	-118.78
703.053	-0
703.245	59.39
703.436	69.63
703.628	-96.25
703.82	6.14
704.012	-61.44
704.203	100.35
704.395	63.49
704.587	-45.06
704.779	43.01
704.97	-63.49
705.162	292.86
705.354	6162.34
705.545	9682.8
705.737	9678.7
705.929	4059.07
706.12	2713.56
706.312	466.94
706.503	8.19
706.695	47.1
706.887	77.82
707.078	55.3
707.27	0
707.461	-22.53
707.653	90.11
707.844	30.72
708.036	79.87
708.227	45.06
708.419	-8.19
708.61	59.39
708.802	-63.49
708.993	-100.35
709.185	20.48
709.376	-6.14
709.567	77.82
709.759	16.38
709.95	16.38
710.141	4.1
710.333	-172.03
710.524	-65.54
710.716	-51.2
710.907	92.16
711.098	4.1
711.289	49.15
711.481	6.14
711.672	40.96
711.863	4.1
712.055	2.05
712.246	75.77
712.437	71.68
712.628	-57.34
712.82	112.64
713.011	32.77
713.202	-28.67
713.393	20.48
713.584	100.35
713.775	30.72
713.967	-6.14
714.158	28.67
714.349	79.87
714.54	-73.73
714.731	22.53
714.922	-20.48
715.113	-18.43
715.304	12.29
715.495	-71.68
715.686	-65.54
715.877	-47.1
716.068	-6.14
716.259	-30.72
716.45	75.77
716.641	34.82
716.832	-4.1
717.023	20.48
717.214	34.82
717.405	-10.24
717.596	-51.2
717.787	-57.34
717.978	-20.48
718.169	10.24
718.36	-49.15
718.55	8.19
718.741	79.87
718.932	-47.1
719.123	-112.64
719.314	6.14
719.505	22.53
719.695	-0
719.886	106.49
720.077	14.34
720.268	12.29
720.458	38.91
720.649	38.91
720.84	43.01
721.031	-24.58
721.221	20.48
721.412	8.19
721.603	6.14
721.793	4.1
721.984	-4.1
722.175	118.78
722.365	-61.44
722.556	-2.05
722.746	-45.06
722.937	61.44
723.128	75.77
723.318	-73.73
723.509	-22.53
723.699	-16.38
723.89	112.64
724.08	-18.43
724.271	26.62
724.461	-55.3
724.652	-63.49
724.842	0
725.033	-57.34
725.223	28.67
725.414	129.02
725.604	-12.29
725.794	10.24
725.985	-61.44
726.175	0
726.366	49.15
726.556	77.82
726.746	-6.14
726.937	43.01
727.127	-2.05
727.317	59.39
727.508	2.05
727.698	14.34
727.888	65.53
728.079	-51.2
728.269	-49.15
728.459	75.77
728.649	51.2
728.84	81.92
729.03	10.24
729.22	8.19
729.41	73.73
729.6	40.96
729.791	16.38
729.981	26.62
730.171	53.25
730.361	-2.05
730.551	-67.58
730.741	83.97
730.931	-83.97
731.121	90.11
731.311	26.62
731.502	2.05
731.692	-65.54
731.882	12.29
732.072	-2.05
732.262	55.3
732.452	67.58
732.642	20.48
732.832	-14.34
733.022	114.69
733.212	-14.34
733.402	114.69
733.591	-43.01
733.781	-69.63
733.971	49.15
734.161	-26.62
734.351	2.05
734.541	-4.1
734.731	-38.91
734.921	22.53
735.111	10.24
735.3	67.58
735.49	-12.29
735.68	126.97
735.87	14.34
736.06	43.01
736.249	22.53
736.439	-86.01
736.629	40.96
736.819	452.6
737.008	7024.53
737.198	18685.67
737.388	17315.58
737.577	10323.81
737.767	9013.11
737.957	3956.68
738.146	2281.44
738.336	362.49
738.526	194.56
738.715	51.2
738.905	4.1
739.094	59.39
739.284	79.87
739.474	67.58
739.663	-47.1
739.853	-40.96
740.042	-36.86
740.232	61.44
740.421	47.1
740.611	81.92
740.8	49.15
740.99	36.86
741.179	98.3
741.369	112.64
741.558	51.2
741.748	-67.58
741.937	98.3
742.126	81.92
742.316	139.26
742.505	81.92
742.695	38.91
742.884	-20.48
743.073	30.72
743.263	-43.01
743.452	-2.05
743.641	28.67
743.831	-71.68
744.02	81.92
744.209	57.34
744.398	63.49
744.588	28.67
744.777	69.63
744.966	55.3
745.155	75.77
745.345	71.68
745.534	77.82
745.723	-73.73
745.912	38.91
746.101	-30.72
746.29	133.12
746.48	34.82
746.669	86.01
746.858	-10.24
747.047	-24.58
747.236	-4.1
747.425	6.14
747.614	-12.29
747.803	98.3
747.992	22.53
748.181	143.36
748.37	24.58
748.559	-16.38
748.748	-24.58
748.937	143.36
749.126	4204.48
749.315	9914.22
749.504	13520.69
749.693	9383.79
749.882	9244.53
750.071	11149.14
750.26	14991.13
750.449	18394.86
750.638	18941.66
750.826	10024.81
751.015	9019.25
751.204	5201.84
751.393	2256.86
751.582	532.47
751.771	219.13
751.959	114.69
752.148	120.83
752.337	28.67
752.526	40.96
752.714	32.77
752.903	8.19
753.092	-26.62
753.281	38.91
753.469	-24.58
753.658	10.24
753.847	-49.15
754.035	30.72
754.224	-65.54
754.413	-6.14
754.601	-43.01
754.79	-0
754.979	106.49
755.167	-40.96
755.356	28.67
755.544	-49.15
755.733	18.43
755.921	8.19
756.11	26.62
756.298	-24.58
756.487	-22.53
756.675	57.34
756.864	73.73
757.052	22.53
757.241	6.14
757.429	24.58
757.618	-49.15
757.806	32.77
757.995	-59.39
758.183	-28.67
758.371	26.62
758.56	-43.01
758.748	-51.2
758.937	-59.39
759.125	59.39
759.313	-18.43
759.502	-18.43
759.69	-6.14
759.878	43.01
760.066	-30.72
760.255	55.3
760.443	-57.34
760.631	110.59
760.819	-51.2
761.008	-8.19
761.196	75.77
761.384	-10.24
761.572	120.83
761.761	118.78
761.949	2748.37
762.137	9994.09
762.325	21903.03
762.513	29574.72
762.701	37582.27
762.889	29879.86
763.077	20571.85
763.266	15875.85
763.454	11755.34
763.642	6102.95
763.83	4140.99
764.018	1576.94
764.206	495.61
764.394	167.93
764.582	149.5
764.77	67.58
764.958	-77.82
765.146	67.58
765.334	-63.49
765.522	61.44
765.71	45.06
765.898	81.92
766.085	-14.34
766.273	65.53
766.461	-49.15
766.649	-40.96
766.837	-43.01
767.025	45.06
767.213	34.82
767.401	-8.19
767.588	22.53
767.776	-34.82
767.964	-63.49
768.152	-73.73
768.339	2.05
768.527	77.82
768.715	22.53
768.903	12.29
769.09	14.34
769.278	-90.11
769.466	-28.67
769.654	-0
769.841	-4.1
770.029	45.06
770.217	-51.2
770.404	-14.34
770.592	126.97
770.779	-18.43
770.967	94.21
771.155	2154.46
771.342	11814.73
771.53	13707.05
771.717	9838.44
771.905	7999.37
772.092	4284.35
772.28	1550.31
772.467	1114.1
772.655	79.87
772.842	45.06
773.03	59.39
773.217	77.82
773.405	77.82
773.592	8.19
773.78	-55.3
773.967	-0
774.154	126.97
774.342	-79.87
774.529	71.68
774.717	45.06
774.904	16.38
775.091	-20.48
775.279	-2.05
775.466	34.82
775.653	22.53
775.841	16.38
776.028	153.6
776.215	28.67
776.402	-14.34
776.59	12.29
776.777	14.34
776.964	67.58
777.151	69.63
777.338	-2.05
777.526	47.1
777.713	12.29
777.9	-45.06
778.087	-10.24
778.274	6.14
778.461	10.24
778.649	12.29
778.836	20.48
779.023	-71.68
779.21	43.01
779.397	-71.68
779.584	38.91
779.771	-51.2
779.958	57.34
780.145	-43.01
780.332	6.14
780.519	-49.15
780.706	200.7
780.893	-8.19
781.08	43.01
781.267	30.72
781.454	-88.06
781.641	67.58
781.828	10.24
782.015	36.86
782.202	-38.91
782.388	4.1
782.575	-12.29
782.762	92.16
782.949	16.38
783.136	-12.29
783.323	36.86
783.509	-2.05
783.696	38.91
783.883	94.21
784.07	32.77
784.257	-83.97
784.443	-18.43
784.63	14.34
784.817	-8.19
785.004	20.48
785.19	4.1
785.377	100.35
785.564	34.82
785.75	-20.48
785.937	22.53
786.124	63.49
786.31	-16.38
786.497	-53.25
786.683	40.96
786.87	-30.72
787.057	28.67
787.243	10.24
787.43	-71.68
787.616	137.21
787.803	34.82
787.989	18.43
788.176	69.63
788.362	14.34
788.549	79.87
788.735	67.58
788.922	-32.77
789.108	8.19
789.295	-94.21
789.481	28.67
789.668	53.25
789.854	36.86
790.04	-14.34
790.227	63.49
790.413	2.05
790.599	-40.96
790.786	8.19
790.972	-14.34
791.158	26.62
791.345	22.53
791.531	-12.29
791.717	4.1
791.904	2.05
792.09	67.58
792.276	12.29
792.462	-20.48
792.649	108.54
792.835	92.16
793.021	-90.11
793.207	-43.01
793.393	-12.29
793.58	69.63
793.766	1296.36
793.952	6277.02
794.138	11288.4
794.324	8730.49
794.51	5038
794.696	2195.42
794.882	1535.98
795.069	229.37
795.255	69.63
795.441	53.25
795.627	16.38
795.813	-45.06
795.999	-4.1
796.185	55.3
796.371	2.05
796.557	96.25
796.743	73.73
796.929	-6.14
797.115	-47.1
797.3	-108.54
797.486	-12.29
797.672	10.24
797.858	-34.82
798.044	75.77
798.23	-4.1
798.416	131.07
798.602	20.48
798.788	18.43
798.973	24.58
799.159	51.2
799.345	36.86
799.531	-8.19
799.717	131.07
799.902	2287.58
800.088	3659.72
800.274	2463.71
800.46	6219.68
800.645	10973.02
800.831	13258.55
801.017	8249.22
801.202	7782.28
801.388	3887.04
801.574	1851.36
801.759	331.77
801.945	204.8
802.131	-6.14
802.316	57.34
802.502	-28.67
802.687	26.62
802.873	-40.96
803.058	28.67
803.244	71.68
803.43	75.77
803.615	139.26
803.801	61.44
803.986	-8.19
804.172	-59.39
804.357	-26.62
804.543	-10.24
804.728	63.49
804.913	-143.36
805.099	143.36
805.284	-90.11
805.47	-20.48
805.655	98.3
805.84	-45.06
806.026	-0
806.211	16.38
806.397	79.87
806.582	-2.05
806.767	24.58
806.953	-4.1
807.138	-14.34
807.323	16.38
807.508	12.29
807.694	57.34
807.879	-6.14
808.064	83.97
808.249	-38.91
808.435	63.49
808.62	43.01
808.805	4.1
808.99	14.34
809.175	303.1
809.361	3135.44
809.546	9181.04
809.731	18786.02
809.916	18724.58
810.101	16137.99
810.286	17446.65
810.471	21851.83
810.656	23883.41
810.841	29713.98
811.026	36640.21
811.211	35925.47
811.396	28069.46
811.581	24206.99
811.766	19660.5
811.951	15036.19
812.136	10094.44
812.321	8087.43
812.506	5279.66
812.691	3092.43
812.876	1099.76
813.061	630.77
813.246	249.85
813.431	22.53
813.616	45.06
813.801	67.58
813.986	12.29
814.17	-22.53
814.355	43.01
814.54	-49.15
814.725	57.34
814.91	10.24
815.094	122.88
815.279	2.05
815.464	176.13
815.649	0
815.833	43.01
816.018	53.25
816.203	71.68
816.388	67.58
816.572	-47.1
816.757	100.35
816.942	92.16
817.126	-40.96
817.311	4.1
817.496	-71.68
817.68	2.05
817.865	38.91
818.049	122.88
818.234	-49.15
818.419	-69.63
818.603	106.49
818.788	-32.77
818.972	53.25
819.157	75.77
819.341	47.1
819.526	-32.77
819.71	4.1
819.895	49.15
820.079	-90.11
820.264	-32.77
820.448	-0
820.633	10.24
820.817	6.14
821.001	32.77
821.186	14.34
821.37	-55.3
821.554	10.24
821.739	-55.3
821.923	61.44
822.108	98.3
822.292	124.93
822.476	-45.06
822.66	-20.48
822.845	-0
823.029	14.34
823.213	26.62
823.398	14.34
823.582	4.1
823.766	49.15
823.95	-75.77
824.134	32.77
824.319	8.19
824.503	45.06
824.687	100.35
824.871	-28.67
825.055	-38.91
825.239	-10.24
825.423	43.01
825.608	36.86
825.792	116.73
825.976	3301.33
826.16	4343.74
826.344	2795.48
826.528	878.58
826.712	438.27
826.896	34.82
827.08	14.34
827.264	30.72
827.448	106.49
827.632	65.53
827.816	10.24
828	20.48
828.184	-47.1
828.368	106.49
828.552	-20.48
828.736	6.14
828.919	90.11
829.103	49.15
829.287	79.87
829.471	104.45
829.655	30.72
829.839	38.91
830.023	4.1
830.206	-47.1
830.39	-0
830.574	-40.96
830.758	81.92
830.941	12.29
831.125	-57.34
831.309	47.1
831.493	57.34
831.676	-18.43
831.86	-40.96
832.044	24.58
832.227	20.48
832.411	53.25
832.595	67.58
832.778	98.3
832.962	65.53
833.146	79.87
833.329	12.29
833.513	90.11
833.696	-26.62
833.88	-22.53
834.064	2.05
834.247	47.1
834.431	73.73
834.614	18.43
834.798	-57.34
834.981	-20.48
835.165	-86.01
835.348	-4.1
835.532	49.15
835.715	-53.25
835.898	-20.48
836.082	-4.1
836.265	51.2
836.449	2.05
836.632	94.21
836.815	47.1
836.999	-32.77
837.182	120.83
837.365	-100.35
837.549	57.34
837.732	32.77
837.915	0
838.099	6.14
838.282	43.01
838.465	98.3
838.648	-49.15
838.832	-61.44
839.015	20.48
839.198	6.14
839.381	-20.48
839.565	28.67
839.748	108.54
839.931	16.38
840.114	86.01
840.297	2611.16
840.48	7411.6
840.663	11843.4
840.847	9613.17
841.03	7491.47
841.213	5244.85
841.396	5201.84
841.579	3276.75
841.762	4161.47
841.945	5957.54
842.128	10442.59
842.311	13160.25
842.494	12605.25
842.677	8771.45
842.86	7102.36
843.043	4788.15
843.226	2820.05
843.409	583.67
843.592	350.2
843.775	71.68
843.958	12.29
844.141	69.63
844.323	-51.2
844.506	137.21
844.689	38.91
844.872	51.2
845.055	-40.96
845.238	47.1
845.42	53.25
845.603	90.11
845.786	-2.05
845.969	45.06
846.152	12.29
846.334	43.01
846.517	30.72
846.7	-43.01
846.883	49.15
847.065	40.96
847.248	-81.92
847.431	28.67
847.613	-77.82
847.796	20.48
847.979	8.19
848.161	22.53
848.344	-77.82
848.526	51.2
848.709	-57.34
848.892	49.15
849.074	12.29
849.257	-32.77
849.439	32.77
849.622	-30.72
849.804	8.19
849.987	163.84
850.169	55.3
850.352	57.34
850.534	34.82
850.717	-51.2
850.899	-55.3
851.082	-30.72
851.264	28.67
851.446	-16.38
851.629	-28.67
851.811	-10.24
851.994	126.97
852.176	620.53
852.358	362.49
852.541	-71.68
852.723	71.68
852.905	20.48
853.088	63.49
853.27	-14.34
853.452	38.91
853.635	4.1
853.817	-22.53
853.999	45.06
854.181	-102.4
854.363	43.01
854.546	-28.67
854.728	-55.3
854.91	61.44
855.092	16.38
855.274	94.21
855.457	14.34
855.639	-16.38
855.821	98.3
856.003	-14.34
856.185	-32.77
856.367	71.68
856.549	53.25
856.731	38.91
856.913	106.49
857.095	-67.58
857.277	30.72
857.459	-32.77
857.641	4.1
857.823	-53.25
858.005	2.05
858.187	34.82
858.369	16.38
858.551	16.38
858.733	-10.24
858.915	-40.96
859.097	40.96
859.279	112.64
859.461	-6.14
859.643	6.14
859.824	4.1
860.006	6.14
860.188	16.38
860.37	49.15
860.552	-0
860.734	71.68
860.915	28.67
861.097	-51.2
861.279	-47.1
861.461	-71.68
861.642	22.53
861.824	-16.38
862.006	-0
862.188	-53.25
862.369	-4.1
862.551	-14.34
862.733	14.34
862.914	34.82
863.096	-30.72
863.278	10.24
863.459	28.67
863.641	26.62
863.822	26.62
864.004	-49.15
864.185	-104.45
864.367	-100.35
864.549	-0
864.73	83.97
864.912	92.16
865.093	43.01
865.275	6.14
865.456	-38.91
865.638	-14.34
865.819	43.01
866.001	34.82
866.182	47.1
866.363	-47.1
866.545	-129.02
866.726	-51.2
866.908	6.14
867.089	32.77
867.27	57.34
867.452	14.34
867.633	24.58
867.814	8.19
867.996	-0
868.177	43.01
868.358	-18.43
868.54	-94.21
868.721	-63.49
868.902	-86.01
869.083	2.05
869.265	26.62
869.446	57.34
869.627	24.58
869.808	30.72
869.989	96.25
870.171	108.54
870.352	77.82
870.533	-36.86
870.714	38.91
870.895	-43.01
871.076	2.05
871.257	-79.87
871.438	-24.58
871.619	-40.96
871.801	16.38
871.982	43.01
872.163	49.15
872.344	18.43
872.525	-20.48
872.706	12.29
872.887	-49.15
873.068	-14.34
873.249	10.24
873.43	24.58
873.61	86.01
873.791	10.24
873.972	-22.53
874.153	43.01
874.334	94.21
874.515	18.43
874.696	53.25
874.877	96.25
875.058	26.62
875.238	40.96
875.419	-71.68
875.6	-6.14
875.781	-67.58
875.962	51.2
876.142	34.82
876.323	6.14
876.504	24.58
876.685	-69.63
876.865	26.62
877.046	-51.2
877.227	8.19
877.407	0
877.588	61.44
877.769	47.1
877.949	22.53
878.13	38.91
878.311	122.88
878.491	-20.48
878.672	-47.1
878.853	10.24
879.033	-71.68
879.214	-28.67
879.394	-2.05
879.575	-98.3
879.755	-10.24
879.936	-94.21
880.116	-77.82
880.297	36.86
880.477	-65.54
880.658	-4.1
880.838	12.29
881.019	79.87
881.199	53.25
881.38	-75.77
881.56	69.63
881.74	-8.19
881.921	51.2
882.101	86.01
882.281	118.78
882.462	-96.25
882.642	-51.2
882.822	53.25
883.003	59.39
883.183	51.2
883.363	6.14
883.544	110.59
883.724	28.67
883.904	-20.48
884.084	-108.54
884.265	55.3
884.445	-32.77
884.625	92.16
884.805	-36.86
884.985	-28.67
885.166	32.77
885.346	-30.72
885.526	32.77
885.706	-65.54
885.886	53.25
886.066	-30.72
886.246	-6.14
886.426	-47.1
886.606	-24.58
886.787	22.53
886.967	-77.82
887.147	-67.58
887.327	65.53
887.507	8.19
887.687	-30.72
887.867	-67.58
888.047	-8.19
888.227	63.49
888.406	30.72
888.586	-40.96
888.766	-77.82
888.946	69.63
889.126	-26.62
889.306	-6.14
889.486	32.77
889.666	-2.05
889.846	-43.01
890.025	32.77
890.205	-83.97
890.385	-26.62
890.565	77.82
890.745	2.05
890.924	106.49
891.104	-43.01
891.284	14.34
891.464	-4.1
891.643	126.97
891.823	-86.01
892.003	10.24
892.183	-20.48
892.362	63.49
892.542	94.21
892.722	-47.1
892.901	8.19
893.081	61.44
893.26	-10.24
893.44	-18.43
893.62	26.62
893.799	-67.58
893.979	34.82
894.158	-49.15
894.338	-36.86
894.517	51.2
894.697	59.39
894.877	14.34
895.056	-24.58
895.236	-4.1
895.415	2.05
895.594	45.06
895.774	57.34
895.953	-75.77
896.133	-47.1
896.312	-4.1
896.492	-26.62
896.671	47.1
896.85	-28.67
897.03	90.11
897.209	-94.21
897.388	-10.24
897.568	-24.58
897.747	-53.25
897.926	-55.3
898.106	8.19
898.285	-18.43
898.464	-30.72
898.643	-28.67
898.823	0
899.002	26.62
899.181	20.48
899.36	6.14
899.54	12.29
899.719	26.62
899.898	32.77
900.077	-83.97
900.256	20.48
900.435	-45.06
900.614	-24.58
900.794	67.58
900.973	-18.43
901.152	28.67
901.331	75.77
901.51	12.29
901.689	30.72
901.868	-22.53
902.047	104.45
902.226	-14.34
902.405	51.2
902.584	-61.44
902.763	-16.38
902.942	-18.43
903.121	61.44
903.3	28.67
903.479	36.86
903.658	36.86
903.837	75.77
904.015	-14.34
904.194	-12.29
904.373	-10.24
904.552	28.67
904.731	63.49
904.91	10.24
905.089	-73.73
905.267	18.43
905.446	-53.25
905.625	-30.72
905.804	34.82
905.982	24.58
906.161	83.97
906.34	-12.29
906.519	30.72
906.697	10.24
906.876	-40.96
907.055	47.1
907.233	-12.29
907.412	81.92
907.591	10.24
907.769	-61.44
907.948	16.38
908.127	6.14
908.305	-26.62
908.484	-63.49
908.662	-32.77
908.841	4.1
909.019	4.1
909.198	-24.58
909.377	-96.25
909.555	-38.91
909.734	43.01
909.912	49.15
910.09	77.82
910.269	-34.82
910.447	-28.67
910.626	-32.77
910.804	-26.62
910.983	-22.53
911.161	18.43
911.339	26.62
911.518	-6.14
911.696	110.59
911.875	-69.63
912.053	-59.39
912.231	34.82
912.41	2.05
912.588	10.24
912.766	18.43
912.944	-0
913.123	-12.29
913.301	28.67
913.479	147.45
913.657	118.78
913.836	-20.48
914.014	20.48
914.192	-26.62
914.37	-47.1
914.548	53.25
914.727	55.3
914.905	-51.2
915.083	-90.11
915.261	-34.82
915.439	94.21
915.617	-40.96
915.795	32.77
915.973	-2.05
916.151	45.06
916.329	-26.62
916.508	83.97
916.686	90.11
916.864	22.53
917.042	28.67
917.22	61.44
917.398	-16.38
917.575	-20.48
917.753	-106.49
917.931	2.05
918.109	-49.15
918.287	43.01
918.465	-26.62
918.643	-0
918.821	-12.29
918.999	-129.02
919.177	-14.34
919.354	43.01
919.532	22.53
919.71	12.29
919.888	24.58
920.066	34.82
920.243	-32.77
920.421	8.19
920.599	-34.82
920.777	-49.15
920.954	57.34
921.132	45.06
921.31	96.25
921.488	129.02
921.665	-55.3
921.843	55.3
922.021	-36.86
922.198	88.06
922.376	-49.15
922.553	-2.05
922.731	-34.82
922.909	2.05
923.086	-4.1
923.264	-14.34
923.441	-98.3
923.619	114.69
923.796	-18.43
923.974	26.62
924.152	-63.49
924.329	4.1
924.507	-71.68
924.684	-18.43
924.861	-8.19
925.039	-24.58
925.216	-47.1
925.394	14.34
925.571	126.97
925.749	24.58
925.926	16.38
926.103	96.25
926.281	-12.29
926.458	-16.38
926.635	71.68
926.813	-24.58
926.99	59.39
927.167	-12.29
927.345	-10.24
927.522	96.25
927.699	-43.01
927.876	26.62
928.054	-30.72
928.231	-38.91
928.408	-32.77
928.585	53.25
928.763	32.77
928.94	10.24
929.117	-94.21
929.294	22.53
929.471	-53.25
929.648	43.01
929.825	-26.62
930.003	75.77
930.18	6.14
930.357	-34.82
930.534	-45.06
930.711	-77.82
930.888	-32.77
931.065	124.93
931.242	-71.68
931.419	-12.29
931.596	92.16
931.773	53.25
931.95	30.72
932.127	83.97
932.304	16.38
932.481	8.19
932.658	-8.19
932.835	-57.34
933.011	2.05
933.188	-32.77
933.365	34.82
933.542	45.06
933.719	53.25
933.896	63.49
934.073	-30.72
934.249	-49.15
934.426	-34.82
934.603	-36.86
934.78	104.45
934.957	14.34
935.133	-49.15
935.31	-28.67
935.487	51.2
935.664	-47.1
935.84	24.58
936.017	49.15
936.194	-53.25
936.37	-22.53
936.547	-34.82
936.724	77.82
936.9	30.72
937.077	-22.53
937.253	-22.53
937.43	-26.62
937.607	-22.53
937.783	-2.05
937.96	6.14
938.136	-26.62
938.313	-94.21
938.489	0
938.666	83.97
938.842	-30.72
939.019	43.01
939.195	-55.3
939.372	22.53
939.548	-24.58
939.725	-12.29
939.901	-0
940.077	10.24
940.254	-139.26
940.43	106.49
940.607	-12.29
940.783	-51.2
940.959	-10.24
941.136	45.06
941.312	8.19
941.488	-69.63
941.665	-67.58
941.841	32.77
942.017	59.39
942.193	69.63
942.37	-73.73
942.546	-88.06
942.722	98.3
942.898	-6.14
943.074	26.62
943.251	-65.54
943.427	-65.54
943.603	26.62
943.779	47.1
943.955	-28.67
944.131	2.05
944.308	20.48
944.484	-55.3
944.66	47.1
944.836	-20.48
945.012	-20.48
945.188	-57.34
945.364	-6.14
945.54	-32.77
945.716	22.53
945.892	-14.34
946.068	-59.39
946.244	-8.19
946.42	16.38
946.596	75.77
946.772	51.2
946.948	-118.78
947.124	-83.97
947.3	57.34
947.475	51.2
947.651	92.16
947.827	26.62
948.003	100.35
948.179	112.64
948.355	-40.96
948.531	108.54
948.706	43.01
948.882	28.67
949.058	-16.38
949.234	-4.1
949.409	-94.21
949.585	-75.77
949.761	28.67
949.937	43.01
950.112	-32.77
950.288	65.53
950.464	71.68
950.639	51.2
950.815	-53.25
950.991	-0
951.166	49.15
951.342	-53.25
951.518	-30.72
951.693	36.86
951.869	-32.77
952.044	-10.24
952.22	75.77
952.395	4.1
952.571	79.87
952.747	45.06
952.922	-59.39
953.098	96.25
953.273	47.1
953.448	102.4
953.624	-20.48
953.799	51.2
953.975	22.53
954.15	131.07
954.326	-2.05
954.501	47.1
954.676	10.24
954.852	43.01
955.027	43.01
955.203	-106.49
955.378	-4.1
955.553	-43.01
955.729	79.87
955.904	4.1
956.079	81.92
956.254	10.24
956.43	75.77
956.605	79.87
956.78	94.21
956.955	36.86
957.131	4.1
957.306	-186.37
957.481	81.92
957.656	8.19
957.831	-57.34
958.007	83.97
958.182	-43.01
958.357	147.45
958.532	-10.24
958.707	22.53
958.882	2.05
959.057	-16.38
959.232	-83.97
959.407	38.91
959.582	32.77
959.757	-8.19
959.932	43.01
960.107	-4.1
960.282	-30.72
960.457	0
960.632	20.48
960.807	106.49
960.982	-67.58
961.157	-30.72
961.332	38.91
961.507	71.68
961.682	18.43
961.857	-22.53
962.032	-36.86
962.206	-49.15
962.381	-47.1
962.556	-12.29
962.731	-69.63
962.906	47.1
963.081	-28.67
963.255	69.63
963.43	-40.96
963.605	30.72
963.78	40.96
963.954	22.53
964.129	73.73
964.304	-34.82
964.479	-47.1
964.653	10.24
964.828	167.93
965.003	-59.39
965.177	-79.87
965.352	-4.1
965.526	-22.53
965.701	-40.96
965.876	-22.53
966.05	-6.14
966.225	-32.77
966.399	18.43
966.574	10.24
966.748	65.53
966.923	0
967.098	-6.14
967.272	-8.19
967.446	53.25
967.621	-155.65
967.795	61.44
967.97	-53.25
968.144	-26.62
968.319	81.92
968.493	-2.05
968.668	24.58
968.842	-8.19
969.016	-40.96
969.191	12.29
969.365	-40.96
969.539	-16.38
969.714	2.05
969.888	-32.77
970.062	20.48
970.237	-24.58
970.411	-26.62
970.585	73.73
970.759	-90.11
970.934	-28.67
971.108	-26.62
971.282	10.24
971.456	30.72
971.63	-47.1
971.805	-18.43
971.979	53.25
972.153	-12.29
972.327	22.53
972.501	-4.1
972.675	-0
972.849	-24.58
973.024	8.19
973.198	79.87
973.372	34.82
973.546	-12.29
973.72	-22.53
973.894	16.38
974.068	38.91
974.242	-36.86
974.416	40.96
974.59	45.06
974.764	-57.34
974.938	6.14
975.112	8.19
975.286	-118.78
975.46	-38.91
975.633	14.34
975.807	12.29
975.981	-63.49
976.155	45.06
976.329	-47.1
976.503	-100.35
976.677	-22.53
976.85	-75.77
977.024	12.29
977.198	12.29
977.372	-112.64
977.546	28.67
977.719	-24.58
977.893	104.45
978.067	-30.72
978.241	2.05
978.414	65.53
978.588	-14.34
978.762	-2.05
978.935	55.3
979.109	4.1
979.283	73.73
979.456	57.34
979.63	32.77
979.804	-10.24
979.977	-16.38
980.151	-26.62
980.324	-114.69
980.498	-65.54
980.671	10.24
980.845	12.29
981.018	6.14
981.192	4.1
981.365	0
981.539	40.96
981.712	100.35
981.886	55.3
982.059	-20.48
982.233	-26.62
982.406	-86.01
982.58	-38.91
982.753	-83.97
982.926	22.53
983.1	-0
983.273	-51.2
983.446	-4.1
983.62	-10.24
983.793	-40.96
983.966	-61.44
984.14	104.45
984.313	32.77
984.486	-14.34
984.66	-57.34
984.833	-0
985.006	-34.82
985.179	-79.87
985.352	-38.91
985.526	77.82
985.699	-10.24
985.872	-36.86
986.045	49.15
986.218	28.67
986.391	45.06
986.565	51.2
986.738	24.58
986.911	-8.19
987.084	-51.2
987.257	28.67
987.43	100.35
987.603	6.14
987.776	63.49
987.949	-90.11
988.122	-69.63
988.295	67.58
988.468	-22.53
988.641	0
988.814	-47.1
988.987	28.67
989.16	75.77
989.333	47.1
989.506	67.58
989.679	-45.06
989.852	67.58
990.025	63.49
990.197	81.92
990.37	-28.67
990.543	-28.67
990.716	67.58
990.889	-10.24
991.062	-49.15
991.234	-16.38
991.407	6.14
991.58	65.53
991.753	12.29
991.925	67.58
992.098	8.19
992.271	-71.68
992.444	-106.49
992.616	38.91
992.789	86.01
992.962	12.29
993.134	133.12
993.307	-69.63
993.479	86.01
993.652	-0
993.825	32.77
993.997	-83.97
994.17	34.82
994.342	16.38
994.515	14.34
994.688	45.06
994.86	-61.44
995.033	-24.58
995.205	77.82
995.378	4.1
995.55	-86.01
995.723	14.34
995.895	24.58
996.067	-108.54
996.24	47.1
996.412	16.38
996.585	-81.92
996.757	-10.24
996.929	-20.48
997.102	-18.43
997.274	-6.14
997.447	-6.14
997.619	49.15
997.791	100.35
997.964	51.2
998.136	26.62
998.308	-96.25
998.48	63.49
998.653	16.38
998.825	49.15
998.997	-14.34
999.169	86.01
999.342	49.15
999.514	-6.14
999.686	-10.24
999.858	20.48
1000.03	-38.91
1000.202	-61.44
1000.374	6.14
1000.547	51.2
1000.719	24.58
1000.891	-10.24
1001.063	22.53
1001.235	-38.91
1001.407	98.3
1001.579	-4.1
1001.751	20.48
1001.923	18.43
1002.095	26.62
1002.267	-61.44
1002.439	81.92
1002.611	-65.54
1002.783	24.58
1002.955	-20.48
1003.127	77.82
1003.299	57.34
1003.471	75.77
1003.643	10.24
1003.815	2.05
1003.986	-43.01
1004.158	-67.58
1004.33	-14.34
1004.502	-0
1004.674	2.05
1004.846	-38.91
1005.017	8.19
1005.189	40.96
1005.361	-24.58
1005.533	24.58
1005.704	-47.1
1005.876	-40.96
1006.048	-92.16
1006.22	20.48
1006.391	-43.01
1006.563	-6.14
1006.735	-20.48
1006.906	55.3
1007.078	8.19
1007.25	30.72
1007.421	24.58
1007.593	40.96
1007.764	-69.63
1007.936	22.53
1008.108	14.34
1008.279	-2.05
1008.451	40.96
1008.622	120.83
1008.794	-90.11
1008.965	63.49
1009.137	-141.31
1009.308	47.1
1009.48	90.11
1009.651	55.3
1009.823	-14.34
1009.994	20.48
1010.165	-69.63
1010.337	-20.48
1010.508	77.82
1010.68	-26.62
1010.851	40.96
1011.022	-28.67
1011.194	79.87
1011.365	-81.92
1011.536	71.68
1011.708	24.58
1011.879	-14.34
1012.05	12.29
1012.222	-43.01
1012.393	75.77
1012.564	45.06
1012.735	32.77
1012.906	-38.91
1013.078	106.49
1013.249	18.43
1013.42	83.97
1013.591	112.64
1013.762	-26.62
1013.934	26.62
1014.105	10.24
1014.276	-22.53
1014.447	-4.1
1014.618	43.01
1014.789	22.53
1014.96	-63.49
1015.131	36.86
1015.302	-22.53
1015.473	14.34
1015.644	-75.77
1015.815	0
1015.986	-28.67
1016.157	40.96
1016.328	30.72
1016.499	-6.14
1016.67	-32.77
1016.841	30.72
1017.012	40.96
1017.183	40.96
1017.354	-53.25
1017.525	-24.58
1017.696	8.19
1017.867	-28.67
1018.037	-102.4
1018.208	-30.72
1018.379	-18.43
1018.55	73.73
1018.721	-12.29
1018.891	24.58
1019.062	-28.67
1019.233	-73.73
1019.404	57.34
1019.574	-28.67
1019.745	57.34
1019.916	28.67
1020.087	-0
1020.257	22.53
1020.428	-0
1020.599	159.74
1020.769	-88.06
1020.94	-38.91
1021.11	38.91
1021.281	34.82
1021.452	34.82
1021.622	-18.43
1021.793	-8.19
1021.963	24.58
1022.134	63.49
1022.305	-47.1
1022.475	-34.82
1022.646	6.14
1022.816	43.01
1022.987	-98.3
1023.157	12.29
1023.327	-24.58
1023.498	49.15
1023.668	-2.05
1023.839	30.72
1024.009	73.73
1024.18	-69.63
1024.35	57.34
1024.52	-6.14
1024.691	53.25
1024.861	24.58
1025.031	0
1025.202	2.05
1025.372	14.34
1025.542	57.34
1025.713	-100.35
1025.883	-36.86
1026.053	65.53
1026.223	-8.19
1026.394	-63.49
1026.564	-77.82
1026.734	-16.38
1026.904	55.3
1027.074	-22.53
1027.245	-88.06
1027.415	43.01
1027.585	-51.2
1027.755	16.38
1027.925	108.54
1028.095	-43.01
1028.265	6.14
1028.435	51.2
1028.606	30.72
1028.776	6.14
1028.946	34.82
1029.116	61.44
1029.286	0
1029.456	77.82
1029.626	75.77
1029.796	120.83
1029.966	57.34
1030.136	32.77
1030.306	-71.68
1030.475	94.21
1030.645	45.06
1030.815	-14.34
1030.985	-32.77
1031.155	-22.53
1031.325	-114.69
1031.495	-16.38
1031.665	-65.54
1031.835	-36.86
1032.004	53.25
1032.174	22.53
1032.344	49.15
1032.514	59.39
1032.684	-55.3
1032.853	24.58
1033.023	57.34
1033.193	-2.05
1033.362	-4.1
1033.532	-69.63
1033.702	18.43
1033.872	38.91
1034.041	-59.39
1034.211	53.25
1034.381	18.43
1034.55	14.34
1034.72	-77.82
1034.889	34.82
1035.059	20.48
1035.229	4.1
1035.398	49.15
1035.568	69.63
1035.737	61.44
1035.907	53.25
1036.076	-22.53
1036.246	-63.49
1036.415	-43.01
1036.585	4.1
1036.754	6.14
1036.924	-20.48
1037.093	4.1
1037.263	0
1037.432	8.19
1037.601	-45.06
1037.771	-55.3
1037.94	-6.14
1038.11	-28.67
1038.279	96.25
1038.448	28.67
1038.618	69.63
1038.787	28.67
1038.956	-102.4
1039.126	45.06
1039.295	-45.06
1039.464	0
1039.633	14.34
1039.803	-51.2
1039.972	-6.14
1040.141	-98.3
1040.31	-40.96
1040.479	51.2
1040.649	-22.53
1040.818	18.43
1040.987	-34.82
1041.156	55.3
1041.325	6.14
1041.494	77.82
1041.663	-155.65
1041.833	36.86
1042.002	100.35
1042.171	-2.05
1042.34	102.4
1042.509	-45.06
1042.678	-86.01
