Data from LSP84_F6_Subt2_15-23-44-618.txt Node
Date: Tue Aug 22 15:23:44 EDT 2023
User: Emmanuel
Spectrometer: USB4A00615
Scans to average: 1
Trigger mode: 1
Integration Time (sec): 5.000000E-3
Electric dark correction enabled: true
Boxcar width: 0
XAxis mode: Wavelengths
Number of Pixels in Spectrum: 3648
>>>>>Begin Spectral Data<<<<<
346.606	17.58
346.818	17.58
347.029	17.58
347.241	68.78
347.452	40.11
347.664	-35.67
347.876	-33.62
348.087	-54.1
348.299	-2.9
348.51	70.83
348.722	-37.72
348.933	48.3
349.145	13.48
349.356	-25.43
349.568	-95.06
349.779	107.69
349.991	44.2
350.202	-82.77
350.414	-68.44
350.625	-39.76
350.836	-21.33
351.048	29.87
351.259	-4.95
351.471	-64.34
351.682	-60.24
351.893	68.78
352.105	13.48
352.316	-17.24
352.527	11.43
352.739	5.29
352.95	25.77
353.161	50.35
353.372	-25.43
353.584	-2.9
353.795	1.19
354.006	33.96
354.217	105.64
354.429	-68.44
354.64	27.82
354.851	1.19
355.062	9.39
355.274	-19.29
355.485	58.54
355.696	-15.19
355.907	-4.95
356.118	-25.43
356.329	-113.49
356.54	5.29
356.752	11.43
356.963	-54.1
357.174	-31.57
357.385	-17.24
357.596	99.5
357.807	66.73
358.018	46.25
358.229	50.35
358.44	-80.72
358.651	44.2
358.862	-58.2
359.073	-19.29
359.284	-0.85
359.495	44.2
359.706	91.31
359.917	144.55
360.128	-7
360.339	-17.24
360.55	74.92
360.761	-19.29
360.972	11.43
361.182	-11.09
361.393	25.77
361.604	99.5
361.815	-62.29
362.026	-121.68
362.237	-2.9
362.447	50.35
362.658	42.15
362.869	-21.33
363.08	42.15
363.291	-33.62
363.501	-70.48
363.712	-0.85
363.923	-47.96
364.134	38.06
364.344	74.92
364.555	48.3
364.766	5.29
364.976	-17.24
365.187	-25.43
365.398	-35.67
365.608	36.01
365.819	-27.48
366.03	-7
366.24	-58.2
366.451	38.06
366.662	31.91
366.872	-179.03
367.083	-15.19
367.293	-43.86
367.504	97.45
367.714	-9.05
367.925	21.67
368.135	-88.92
368.346	-2.9
368.557	-39.76
368.767	103.59
368.977	-7
369.188	-70.48
369.398	-125.78
369.609	19.63
369.819	-31.57
370.03	44.2
370.24	-80.72
370.451	70.83
370.661	62.63
370.871	-84.82
371.082	-21.33
371.292	33.96
371.502	62.63
371.713	21.67
371.923	74.92
372.133	25.77
372.344	-54.1
372.554	-21.33
372.764	19.63
372.975	-13.14
373.185	-117.59
373.395	13.48
373.605	21.67
373.816	-0.85
374.026	-37.72
374.236	-107.35
374.446	79.02
374.656	36.01
374.867	-39.76
375.077	9.39
375.287	-76.63
375.497	-13.14
375.707	7.34
375.917	-45.91
376.127	25.77
376.338	70.83
376.548	-60.24
376.758	9.39
376.968	31.91
377.178	11.43
377.388	-21.33
377.598	-2.9
377.808	54.44
378.018	-23.38
378.228	-43.86
378.438	1.19
378.648	36.01
378.858	-2.9
379.068	19.63
379.278	-27.48
379.488	113.83
379.698	-25.43
379.908	66.73
380.118	46.25
380.327	38.06
380.537	42.15
380.747	91.31
380.957	-70.48
381.167	-76.63
381.377	19.63
381.587	85.16
381.796	-19.29
382.006	-25.43
382.216	60.59
382.426	42.15
382.636	9.39
382.845	-23.38
383.055	-70.48
383.265	29.87
383.475	29.87
383.684	19.63
383.894	64.68
384.104	-41.81
384.313	29.87
384.523	97.45
384.733	9.39
384.942	119.98
385.152	-41.81
385.362	70.83
385.571	29.87
385.781	42.15
385.991	-27.48
386.2	105.64
386.41	-15.19
386.619	-68.44
386.829	-35.67
387.038	-11.09
387.248	21.67
387.457	-23.38
387.667	9.39
387.876	-27.48
388.086	15.53
388.295	13.48
388.505	91.31
388.714	29.87
388.924	15.53
389.133	19.63
389.343	83.11
389.552	-0.85
389.762	31.91
389.971	-33.62
390.18	5.29
390.39	-95.06
390.599	-111.44
390.808	-7
391.018	87.21
391.227	15.53
391.436	62.63
391.646	-13.14
391.855	97.45
392.064	-4.95
392.274	1.19
392.483	-13.14
392.692	33.96
392.901	-21.33
393.111	-52.05
393.32	13.48
393.529	81.07
393.738	-66.39
393.947	-15.19
394.157	101.55
394.366	-7
394.575	-13.14
394.784	50.35
394.993	-52.05
395.202	15.53
395.411	-0.85
395.62	-4.95
395.83	15.53
396.039	-35.67
396.248	-2.9
396.457	-84.82
396.666	-50
396.875	33.96
397.084	-11.09
397.293	1.19
397.502	-25.43
397.711	-82.77
397.92	40.11
398.129	-19.29
398.338	-50
398.547	87.21
398.756	-31.57
398.965	-66.39
399.174	-52.05
399.382	29.87
399.591	58.54
399.8	44.2
400.009	3.24
400.218	144.55
400.427	-15.19
400.636	21.67
400.844	64.68
401.053	31.91
401.262	-70.48
401.471	52.39
401.68	27.82
401.888	-17.24
402.097	3.24
402.306	23.72
402.515	79.02
402.723	52.39
402.932	-21.33
403.141	-11.09
403.35	25.77
403.558	-27.48
403.767	85.16
403.976	25.77
404.184	64.68
404.393	56.49
404.602	52.39
404.81	-160.59
405.019	17.58
405.227	-86.87
405.436	58.54
405.645	85.16
405.853	54.44
406.062	21.67
406.27	-76.63
406.479	25.77
406.687	-39.76
406.896	1.19
407.104	-56.15
407.313	74.92
407.521	-33.62
407.73	23.72
407.938	66.73
408.147	-41.81
408.355	79.02
408.563	-29.52
408.772	-52.05
408.98	46.25
409.189	97.45
409.397	-27.48
409.605	72.87
409.814	109.74
410.022	70.83
410.23	-11.09
410.439	36.01
410.647	-82.77
410.855	-2.9
411.064	-86.87
411.272	29.87
411.48	95.4
411.688	-70.48
411.897	146.6
412.105	124.07
412.313	-62.29
412.521	-54.1
412.73	11.43
412.938	31.91
413.146	-52.05
413.354	-37.72
413.562	-60.24
413.77	-11.09
413.979	-142.16
414.187	25.77
414.395	-19.29
414.603	1.19
414.811	46.25
415.019	-37.72
415.227	87.21
415.435	40.11
415.643	-37.72
415.851	11.43
416.059	31.91
416.267	-74.58
416.475	79.02
416.683	21.67
416.891	21.67
417.099	142.5
417.307	46.25
417.515	7.34
417.723	-25.43
417.931	-19.29
418.139	46.25
418.347	-29.52
418.555	-86.87
418.763	-39.76
418.971	130.22
419.179	-60.24
419.386	-41.81
419.594	-52.05
419.802	50.35
420.01	-107.35
420.218	50.35
420.426	40.11
420.633	91.31
420.841	-2.9
421.049	-23.38
421.257	-17.24
421.464	97.45
421.672	113.83
421.88	44.2
422.088	128.17
422.295	-47.96
422.503	11.43
422.711	-9.05
422.918	79.02
423.126	-11.09
423.334	-7
423.541	89.26
423.749	87.21
423.956	17.58
424.164	33.96
424.372	21.67
424.579	117.93
424.787	42.15
424.994	-4.95
425.202	38.06
425.409	64.68
425.617	17.58
425.824	-43.86
426.032	21.67
426.239	-11.09
426.447	3.24
426.654	33.96
426.862	31.91
427.069	117.93
427.277	54.44
427.484	-25.43
427.692	68.78
427.899	95.4
428.106	83.11
428.314	-17.24
428.521	-2.9
428.728	105.64
428.936	-25.43
429.143	25.77
429.351	48.3
429.558	-47.96
429.765	3.24
429.972	31.91
430.18	-64.34
430.387	48.3
430.594	9.39
430.801	-25.43
431.009	-7
431.216	36.01
431.423	-62.29
431.63	-70.48
431.838	27.82
432.045	-19.29
432.252	154.79
432.459	11.43
432.666	-4.95
432.873	-2.9
433.081	68.78
433.288	-0.85
433.495	70.83
433.702	36.01
433.909	21.67
434.116	119.98
434.323	11.43
434.53	154.79
434.737	105.64
434.944	-86.87
435.151	72.87
435.358	-86.87
435.565	109.74
435.772	-27.48
435.979	117.93
436.186	7.34
436.393	46.25
436.6	115.88
436.807	11.43
437.014	46.25
437.221	115.88
437.428	-33.62
437.635	-7
437.841	79.02
438.048	-47.96
438.255	-41.81
438.462	66.73
438.669	23.72
438.876	13.48
439.082	62.63
439.289	11.43
439.496	54.44
439.703	52.39
439.91	-80.72
440.116	95.4
440.323	-11.09
440.53	142.5
440.737	13.48
440.943	5.29
441.15	-2.9
441.357	7.34
441.563	-13.14
441.77	-52.05
441.977	50.35
442.183	83.11
442.39	-19.29
442.597	-82.77
442.803	64.68
443.01	76.97
443.216	36.01
443.423	-17.24
443.63	64.68
443.836	13.48
444.043	122.02
444.249	-4.95
444.456	115.88
444.662	85.16
444.869	70.83
445.075	40.11
445.282	-39.76
445.488	-52.05
445.695	-11.09
445.901	-9.05
446.107	58.54
446.314	-2.9
446.52	-43.86
446.727	99.5
446.933	40.11
447.139	68.78
447.346	-2.9
447.552	-84.82
447.759	1.19
447.965	11.43
448.171	-2.9
448.378	93.35
448.584	-37.72
448.79	72.87
448.996	-33.62
449.203	-23.38
449.409	87.21
449.615	7.34
449.821	-25.43
450.028	58.54
450.234	-35.67
450.44	9.39
450.646	-2.9
450.852	-56.15
451.059	33.96
451.265	-45.91
451.471	-62.29
451.677	119.98
451.883	-31.57
452.089	119.98
452.295	52.39
452.502	140.46
452.708	-11.09
452.914	31.91
453.12	1.19
453.326	89.26
453.532	1.19
453.738	15.53
453.944	9.39
454.15	42.15
454.356	-45.91
454.562	-58.2
454.768	95.4
454.974	15.53
455.18	-25.43
455.386	-31.57
455.592	-41.81
455.798	-52.05
456.003	76.97
456.209	60.59
456.415	-78.68
456.621	101.55
456.827	-39.76
457.033	76.97
457.239	15.53
457.444	-9.05
457.65	87.21
457.856	-13.14
458.062	115.88
458.268	-9.05
458.473	54.44
458.679	79.02
458.885	89.26
459.091	-27.48
459.296	-115.54
459.502	62.63
459.708	83.11
459.914	11.43
460.119	68.78
460.325	83.11
460.531	-66.39
460.736	-54.1
460.942	-37.72
461.147	33.96
461.353	64.68
461.559	-2.9
461.764	-90.96
461.97	-13.14
462.175	-19.29
462.381	-11.09
462.587	56.49
462.792	179.37
462.998	-43.86
463.203	42.15
463.409	40.11
463.614	23.72
463.82	66.73
464.025	74.92
464.231	-60.24
464.436	17.58
464.641	-86.87
464.847	56.49
465.052	126.12
465.258	-72.53
465.463	17.58
465.669	36.01
465.874	-19.29
466.079	97.45
466.285	21.67
466.49	23.72
466.695	40.11
466.901	21.67
467.106	38.06
467.311	-25.43
467.516	-72.53
467.722	36.01
467.927	-111.44
468.132	-7
468.338	-52.05
468.543	76.97
468.748	-15.19
468.953	105.64
469.158	-39.76
469.364	-33.62
469.569	9.39
469.774	-9.05
469.979	31.91
470.184	60.59
470.389	119.98
470.594	-45.91
470.8	81.07
471.005	-7
471.21	-39.76
471.415	7.34
471.62	42.15
471.825	76.97
472.03	72.87
472.235	-15.19
472.44	50.35
472.645	7.34
472.85	13.48
473.055	58.54
473.26	11.43
473.465	-31.57
473.67	13.48
473.875	134.31
474.08	132.26
474.285	31.91
474.49	7.34
474.695	46.25
474.899	66.73
475.104	-31.57
475.309	36.01
475.514	27.82
475.719	3.24
475.924	-11.09
476.128	76.97
476.333	89.26
476.538	-86.87
476.743	33.96
476.948	-21.33
477.152	54.44
477.357	89.26
477.562	76.97
477.767	42.15
477.971	17.58
478.176	124.07
478.381	-13.14
478.585	21.67
478.79	3.24
478.995	46.25
479.199	15.53
479.404	54.44
479.609	113.83
479.813	-7
480.018	91.31
480.223	107.69
480.427	105.64
480.632	154.79
480.836	134.31
481.041	373.92
481.245	167.08
481.45	3.24
481.654	109.74
481.859	87.21
482.063	40.11
482.268	126.12
482.472	91.31
482.677	130.22
482.881	68.78
483.086	23.72
483.29	-29.52
483.495	130.22
483.699	126.12
483.903	201.9
484.108	97.45
484.312	54.44
484.517	146.6
484.721	-2.9
484.925	36.01
485.13	87.21
485.334	87.21
485.538	132.26
485.743	126.12
485.947	119.98
486.151	68.78
486.355	74.92
486.56	142.5
486.764	76.97
486.968	89.26
487.172	23.72
487.377	99.5
487.581	212.14
487.785	-80.72
487.989	275.62
488.193	165.03
488.397	332.97
488.602	203.94
488.806	269.48
489.01	97.45
489.214	19.63
489.418	152.74
489.622	156.84
489.826	105.64
490.03	91.31
490.234	66.73
490.438	54.44
490.642	136.36
490.846	150.7
491.05	136.36
491.254	54.44
491.458	11.43
491.662	212.14
491.866	25.77
492.07	66.73
492.274	91.31
492.478	199.85
492.682	21.67
492.886	44.2
493.09	124.07
493.294	87.21
493.498	62.63
493.701	109.74
493.905	162.98
494.109	203.94
494.313	128.17
494.517	214.18
494.721	83.11
494.924	205.99
495.128	89.26
495.332	124.07
495.536	19.63
495.739	105.64
495.943	70.83
496.147	56.49
496.351	11.43
496.554	249
496.758	107.69
496.962	113.83
497.165	48.3
497.369	64.68
497.573	99.5
497.776	179.37
497.98	72.87
498.184	269.48
498.387	222.38
498.591	103.59
498.794	40.11
498.998	195.75
499.202	46.25
499.405	126.12
499.609	74.92
499.812	167.08
500.016	150.7
500.219	191.66
500.423	128.17
500.626	392.36
500.83	160.94
501.033	195.75
501.237	117.93
501.44	275.62
501.643	289.96
501.847	328.87
502.05	218.28
502.254	189.61
502.457	119.98
502.66	218.28
502.864	33.96
503.067	212.14
503.271	9.39
503.474	126.12
503.677	70.83
503.88	154.79
504.084	-9.05
504.287	5.29
504.49	64.68
504.694	152.74
504.897	81.07
505.1	226.47
505.303	273.57
505.507	582.82
505.71	267.43
505.913	326.82
506.116	36.01
506.319	249
506.522	146.6
506.726	140.46
506.929	83.11
507.132	527.52
507.335	197.8
507.538	103.59
507.741	208.04
507.944	175.27
508.147	5.29
508.35	138.41
508.553	27.82
508.756	-4.95
508.959	70.83
509.163	64.68
509.366	64.68
509.569	179.37
509.771	25.77
509.974	60.59
510.177	89.26
510.38	126.12
510.583	58.54
510.786	21.67
510.989	109.74
511.192	214.18
511.395	-11.09
511.598	-66.39
511.801	-31.57
512.004	126.12
512.206	70.83
512.409	177.32
512.612	66.73
512.815	156.84
513.018	162.98
513.22	85.16
513.423	91.31
513.626	101.55
513.829	124.07
514.032	165.03
514.234	113.83
514.437	173.22
514.64	136.36
514.842	99.5
515.045	83.11
515.248	152.74
515.45	36.01
515.653	-58.2
515.856	72.87
516.058	160.94
516.261	109.74
516.464	-50
516.666	109.74
516.869	68.78
517.071	128.17
517.274	150.7
517.477	148.65
517.679	138.41
517.882	19.63
518.084	115.88
518.287	97.45
518.489	222.38
518.692	226.47
518.894	181.42
519.097	175.27
519.299	208.04
519.501	109.74
519.704	165.03
519.906	140.46
520.109	249
520.311	-13.14
520.514	289.96
520.716	150.7
520.918	122.02
521.121	99.5
521.323	167.08
521.525	68.78
521.728	85.16
521.93	111.78
522.132	271.53
522.335	795.81
522.537	478.37
522.739	76.97
522.941	183.46
523.144	-27.48
523.346	105.64
523.548	122.02
523.75	9.39
523.952	132.26
524.155	-11.09
524.357	-0.85
524.559	119.98
524.761	93.35
524.963	70.83
525.165	54.44
525.368	15.53
525.57	128.17
525.772	87.21
525.974	76.97
526.176	103.59
526.378	144.55
526.58	119.98
526.782	128.17
526.984	-66.39
527.186	89.26
527.388	13.48
527.59	62.63
527.792	58.54
527.994	87.21
528.196	91.31
528.398	36.01
528.6	111.78
528.802	83.11
529.004	79.02
529.206	-33.62
529.408	179.37
529.609	23.72
529.811	148.65
530.013	60.59
530.215	134.31
530.417	85.16
530.619	101.55
530.821	21.67
531.022	81.07
531.224	38.06
531.426	212.14
531.628	46.25
531.829	58.54
532.031	29.87
532.233	68.78
532.435	1.19
532.636	107.69
532.838	-52.05
533.04	81.07
533.241	11.43
533.443	15.53
533.645	64.68
533.846	126.12
534.048	27.82
534.25	87.21
534.451	105.64
534.653	97.45
534.855	54.44
535.056	60.59
535.258	48.3
535.459	126.12
535.661	31.91
535.862	99.5
536.064	42.15
536.265	-17.24
536.467	38.06
536.668	111.78
536.87	122.02
537.071	29.87
537.273	142.5
537.474	91.31
537.676	89.26
537.877	38.06
538.078	-23.38
538.28	15.53
538.481	74.92
538.683	81.07
538.884	-15.19
539.085	33.96
539.287	31.91
539.488	97.45
539.689	-25.43
539.891	259.24
540.092	97.45
540.293	-19.29
540.495	105.64
540.696	113.83
540.897	44.2
541.098	23.72
541.3	7.34
541.501	122.02
541.702	-13.14
541.903	146.6
542.104	52.39
542.306	-90.96
542.507	103.59
542.708	66.73
542.909	93.35
543.11	111.78
543.311	101.55
543.512	-15.19
543.713	-15.19
543.915	-29.52
544.116	3.24
544.317	64.68
544.518	-13.14
544.719	-15.19
544.92	122.02
545.121	115.88
545.322	42.15
545.523	89.26
545.724	48.3
545.925	87.21
546.126	107.69
546.327	128.17
546.528	79.02
546.729	-47.96
546.929	-13.14
547.13	-35.67
547.331	9.39
547.532	58.54
547.733	54.44
547.934	111.78
548.135	-17.24
548.336	44.2
548.536	-70.48
548.737	27.82
548.938	99.5
549.139	36.01
549.34	72.87
549.54	91.31
549.741	9.39
549.942	85.16
550.143	-45.91
550.343	85.16
550.544	-0.85
550.745	-7
550.945	89.26
551.146	-7
551.347	95.4
551.547	-9.05
551.748	21.67
551.949	72.87
552.149	146.6
552.35	33.96
552.551	5.29
552.751	128.17
552.952	56.49
553.152	-39.76
553.353	74.92
553.553	62.63
553.754	70.83
553.954	36.01
554.155	31.91
554.356	-15.19
554.556	62.63
554.756	124.07
554.957	64.68
555.157	115.88
555.358	72.87
555.558	72.87
555.759	15.53
555.959	7.34
556.159	-4.95
556.36	83.11
556.56	76.97
556.761	142.5
556.961	3.24
557.161	25.77
557.362	95.4
557.562	181.42
557.762	17.58
557.963	25.77
558.163	54.44
558.363	-17.24
558.563	173.22
558.764	40.11
558.964	29.87
559.164	17.58
559.364	42.15
559.565	58.54
559.765	62.63
559.965	83.11
560.165	128.17
560.365	27.82
560.565	154.79
560.766	56.49
560.966	5.29
561.166	-2.9
561.366	91.31
561.566	117.93
561.766	3.24
561.966	126.12
562.166	66.73
562.366	60.59
562.566	79.02
562.766	-11.09
562.966	21.67
563.166	-9.05
563.366	52.39
563.566	117.93
563.766	-4.95
563.966	52.39
564.166	58.54
564.366	222.38
564.566	89.26
564.766	107.69
564.966	48.3
565.166	152.74
565.366	33.96
565.565	91.31
565.765	54.44
565.965	87.21
566.165	50.35
566.365	150.7
566.565	89.26
566.764	115.88
566.964	-62.29
567.164	181.42
567.364	50.35
567.564	76.97
567.763	-17.24
567.963	-64.34
568.163	101.55
568.362	50.35
568.562	140.46
568.762	126.12
568.961	119.98
569.161	58.54
569.361	-0.85
569.56	23.72
569.76	-43.86
569.96	33.96
570.159	83.11
570.359	62.63
570.558	31.91
570.758	19.63
570.958	-50
571.157	9.39
571.357	81.07
571.556	66.73
571.756	212.14
571.955	40.11
572.155	13.48
572.354	134.31
572.554	103.59
572.753	111.78
572.953	54.44
573.152	-41.81
573.351	40.11
573.551	99.5
573.75	-41.81
573.95	72.87
574.149	85.16
574.348	33.96
574.548	50.35
574.747	17.58
574.946	-0.85
575.146	33.96
575.345	-43.86
575.544	-7
575.744	50.35
575.943	113.83
576.142	-19.29
576.342	66.73
576.541	113.83
576.74	54.44
576.939	64.68
577.138	-0.85
577.338	54.44
577.537	31.91
577.736	93.35
577.935	13.48
578.134	13.48
578.333	-9.05
578.533	95.4
578.732	15.53
578.931	42.15
579.13	-15.19
579.329	74.92
579.528	103.59
579.727	9.39
579.926	25.77
580.125	111.78
580.324	101.55
580.523	29.87
580.722	-15.19
580.921	-25.43
581.12	-76.63
581.319	-29.52
581.518	128.17
581.717	-37.72
581.916	15.53
582.115	-56.15
582.314	31.91
582.513	74.92
582.712	-13.14
582.911	162.98
583.109	36.01
583.308	-2.9
583.507	130.22
583.706	-19.29
583.905	-9.05
584.104	7.34
584.302	25.77
584.501	-74.58
584.7	66.73
584.899	46.25
585.098	40.11
585.296	85.16
585.495	-9.05
585.694	60.59
585.892	-4.95
586.091	81.07
586.29	58.54
586.488	-13.14
586.687	-27.48
586.886	1.19
587.084	-76.63
587.283	17.58
587.482	9.39
587.68	66.73
587.879	-17.24
588.077	-66.39
588.276	87.21
588.475	15.53
588.673	87.21
588.872	27.82
589.07	-138.07
589.269	62.63
589.467	36.01
589.666	52.39
589.864	58.54
590.063	33.96
590.261	21.67
590.46	-35.67
590.658	-7
590.857	60.59
591.055	-21.33
591.253	144.55
591.452	23.72
591.65	64.68
591.848	-7
592.047	27.82
592.245	66.73
592.444	-13.14
592.642	-23.38
592.84	-41.81
593.038	62.63
593.237	-27.48
593.435	66.73
593.633	-9.05
593.832	33.96
594.03	103.59
594.228	-2.9
594.426	44.2
594.624	-113.49
594.823	-4.95
595.021	-78.68
595.219	64.68
595.417	-35.67
595.615	25.77
595.813	11.43
596.012	-23.38
596.21	64.68
596.408	-2.9
596.606	36.01
596.804	52.39
597.002	9.39
597.2	72.87
597.398	48.3
597.596	-25.43
597.794	21.67
597.992	54.44
598.19	1.19
598.388	21.67
598.586	7.34
598.784	83.11
598.982	1.19
599.18	7.34
599.378	103.59
599.576	-82.77
599.774	-2.9
599.972	-64.34
600.17	58.54
600.368	-11.09
600.565	58.54
600.763	85.16
600.961	-31.57
601.159	76.97
601.357	156.84
601.555	54.44
601.752	52.39
601.95	72.87
602.148	79.02
602.346	33.96
602.544	-9.05
602.741	-7
602.939	64.68
603.137	50.35
603.334	56.49
603.532	42.15
603.73	19.63
603.927	54.44
604.125	-13.14
604.323	-0.85
604.52	183.46
604.718	-41.81
604.916	89.26
605.113	31.91
605.311	124.07
605.508	-56.15
605.706	79.02
605.904	-72.53
606.101	33.96
606.299	50.35
606.496	11.43
606.694	25.77
606.891	-23.38
607.089	48.3
607.286	79.02
607.484	64.68
607.681	-70.48
607.879	140.46
608.076	-29.52
608.273	-21.33
608.471	85.16
608.668	-43.86
608.866	-0.85
609.063	109.74
609.26	-54.1
609.458	-7
609.655	50.35
609.852	50.35
610.05	33.96
610.247	42.15
610.444	95.4
610.642	7.34
610.839	13.48
611.036	56.49
611.233	48.3
611.431	-23.38
611.628	9.39
611.825	13.48
612.022	-39.76
612.22	-72.53
612.417	-19.29
612.614	-11.09
612.811	195.75
613.008	-45.91
613.205	11.43
613.402	91.31
613.6	64.68
613.797	52.39
613.994	107.69
614.191	-15.19
614.388	64.68
614.585	19.63
614.782	-56.15
614.979	113.83
615.176	158.89
615.373	-0.85
615.57	66.73
615.767	58.54
615.964	105.64
616.161	38.06
616.358	150.7
616.555	-17.24
616.752	-15.19
616.949	36.01
617.146	-21.33
617.343	-11.09
617.539	-0.85
617.736	21.67
617.933	111.78
618.13	40.11
618.327	-11.09
618.524	66.73
618.721	95.4
618.917	-13.14
619.114	29.87
619.311	-9.05
619.508	-43.86
619.704	15.53
619.901	5.29
620.098	-19.29
620.295	-9.05
620.491	11.43
620.688	23.72
620.885	-54.1
621.081	-17.24
621.278	7.34
621.475	101.55
621.671	-13.14
621.868	29.87
622.065	-45.91
622.261	-11.09
622.458	119.98
622.655	-27.48
622.851	210.09
623.048	-58.2
623.244	68.78
623.441	117.93
623.637	-4.95
623.834	-19.29
624.03	21.67
624.227	56.49
624.423	-37.72
624.62	38.06
624.816	-54.1
625.013	68.78
625.209	-84.82
625.406	42.15
625.602	95.4
625.798	31.91
625.995	-119.64
626.191	27.82
626.388	46.25
626.584	13.48
626.78	-19.29
626.977	-37.72
627.173	7.34
627.369	19.63
627.566	21.67
627.762	-54.1
627.958	7.34
628.154	38.06
628.351	91.31
628.547	13.48
628.743	-0.85
628.939	15.53
629.136	19.63
629.332	66.73
629.528	-29.52
629.724	-9.05
629.92	-35.67
630.116	-33.62
630.313	27.82
630.509	-70.48
630.705	17.58
630.901	-4.95
631.097	-17.24
631.293	27.82
631.489	-9.05
631.685	-60.24
631.881	7.34
632.077	13.48
632.273	5.29
632.469	40.11
632.665	13.48
632.861	-13.14
633.057	-23.38
633.253	40.11
633.449	-29.52
633.645	83.11
633.841	140.46
634.037	54.44
634.233	70.83
634.429	56.49
634.625	54.44
634.821	-7
635.017	-52.05
635.212	-31.57
635.408	17.58
635.604	9.39
635.8	-82.77
635.996	-35.67
636.191	89.26
636.387	38.06
636.583	40.11
636.779	17.58
636.975	52.39
637.17	-62.29
637.366	13.48
637.562	46.25
637.757	27.82
637.953	-35.67
638.149	21.67
638.345	-27.48
638.54	-13.14
638.736	107.69
638.931	62.63
639.127	-41.81
639.323	-27.48
639.518	21.67
639.714	5.29
639.909	5.29
640.105	13.48
640.301	5.29
640.496	-19.29
640.692	58.54
640.887	38.06
641.083	25.77
641.278	-2.9
641.474	33.96
641.669	27.82
641.865	42.15
642.06	48.3
642.256	95.4
642.451	-7
642.646	15.53
642.842	-4.95
643.037	33.96
643.233	111.78
643.428	74.92
643.623	-2.9
643.819	5.29
644.014	62.63
644.209	50.35
644.405	15.53
644.6	46.25
644.795	-0.85
644.99	44.2
645.186	42.15
645.381	21.67
645.576	54.44
645.771	9.39
645.967	5.29
646.162	74.92
646.357	15.53
646.552	31.91
646.747	85.16
646.943	128.17
647.138	31.91
647.333	-0.85
647.528	-93.01
647.723	62.63
647.918	-0.85
648.113	-86.87
648.308	89.26
648.504	-15.19
648.699	103.59
648.894	15.53
649.089	29.87
649.284	-60.24
649.479	99.5
649.674	-15.19
649.869	42.15
650.064	23.72
650.259	-50
650.454	19.63
650.649	72.87
650.844	-39.76
651.038	109.74
651.233	54.44
651.428	-52.05
651.623	103.59
651.818	113.83
652.013	36.01
652.208	60.59
652.403	-29.52
652.597	-125.78
652.792	-17.24
652.987	76.97
653.182	-68.44
653.377	101.55
653.571	-33.62
653.766	-15.19
653.961	-72.53
654.156	25.77
654.35	-56.15
654.545	-37.72
654.74	54.44
654.935	-11.09
655.129	-109.4
655.324	-21.33
655.519	93.35
655.713	54.44
655.908	48.3
656.102	56.49
656.297	-13.14
656.492	38.06
656.686	-50
656.881	62.63
657.075	-9.05
657.27	-131.92
657.464	58.54
657.659	-2.9
657.854	19.63
658.048	-66.39
658.243	38.06
658.437	72.87
658.631	-29.52
658.826	33.96
659.02	91.31
659.215	74.92
659.409	-15.19
659.604	93.35
659.798	15.53
659.992	38.06
660.187	9.39
660.381	48.3
660.576	-2.9
660.77	23.72
660.964	33.96
661.159	-9.05
661.353	15.53
661.547	-25.43
661.742	-25.43
661.936	-9.05
662.13	95.4
662.324	-19.29
662.519	7.34
662.713	48.3
662.907	11.43
663.101	3.24
663.295	33.96
663.49	9.39
663.684	25.77
663.878	33.96
664.072	-58.2
664.266	-45.91
664.46	-19.29
664.654	91.31
664.849	-23.38
665.043	27.82
665.237	-31.57
665.431	-95.06
665.625	9.39
665.819	27.82
666.013	128.17
666.207	-74.58
666.401	13.48
666.595	-19.29
666.789	-54.1
666.983	52.39
667.177	13.48
667.371	117.93
667.565	40.11
667.759	50.35
667.953	-31.57
668.147	38.06
668.34	74.92
668.534	66.73
668.728	11.43
668.922	27.82
669.116	-17.24
669.31	-56.15
669.504	-21.33
669.697	56.49
669.891	11.43
670.085	-29.52
670.279	-15.19
670.473	5.29
670.666	48.3
670.86	1.19
671.054	48.3
671.248	-7
671.441	-47.96
671.635	11.43
671.829	21.67
672.022	132.26
672.216	-41.81
672.41	50.35
672.603	33.96
672.797	42.15
672.99	27.82
673.184	48.3
673.378	7.34
673.571	9.39
673.765	-119.64
673.958	-0.85
674.152	-56.15
674.345	-138.07
674.539	36.01
674.733	-47.96
674.926	-0.85
675.12	11.43
675.313	44.2
675.506	31.91
675.7	1.19
675.893	-47.96
676.087	-33.62
676.28	87.21
676.474	-86.87
676.667	-21.33
676.86	13.48
677.054	87.21
677.247	5.29
677.441	109.74
677.634	36.01
677.827	81.07
678.02	21.67
678.214	19.63
678.407	-52.05
678.6	42.15
678.794	-62.29
678.987	-13.14
679.18	29.87
679.373	50.35
679.567	36.01
679.76	156.84
679.953	-66.39
680.146	52.39
680.339	44.2
680.533	21.67
680.726	38.06
680.919	183.46
681.112	27.82
681.305	-58.2
681.498	-31.57
681.691	66.73
681.884	46.25
682.077	-37.72
682.271	-7
682.464	-25.43
682.657	-84.82
682.85	21.67
683.043	17.58
683.236	-97.11
683.429	-58.2
683.622	62.63
683.815	56.49
684.008	52.39
684.201	-31.57
684.393	42.15
684.586	29.87
684.779	68.78
684.972	-23.38
685.165	-21.33
685.358	89.26
685.551	-33.62
685.744	-9.05
685.937	68.78
686.129	15.53
686.322	-64.34
686.515	48.3
686.708	124.07
686.901	-17.24
687.093	-60.24
687.286	23.72
687.479	-72.53
687.672	27.82
687.864	72.87
688.057	-27.48
688.25	25.77
688.442	-43.86
688.635	29.87
688.828	-23.38
689.02	-21.33
689.213	-33.62
689.406	74.92
689.598	1.19
689.791	105.64
689.984	-9.05
690.176	-33.62
690.369	56.49
690.561	-76.63
690.754	-52.05
690.946	27.82
691.139	-35.67
691.331	54.44
691.524	-45.91
691.716	-31.57
691.909	13.48
692.101	-17.24
692.294	103.59
692.486	126.12
692.679	19.63
692.871	76.97
693.063	19.63
693.256	25.77
693.448	-4.95
693.641	52.39
693.833	68.78
694.025	5.29
694.218	9.39
694.41	11.43
694.602	1.19
694.795	-97.11
694.987	-15.19
695.179	552.1
695.372	6429.77
695.564	16006.07
695.756	13743.06
695.948	8789.03
696.14	6032.46
696.333	2034.83
696.525	1471.64
696.717	128.17
696.909	68.78
697.101	58.54
697.294	-13.14
697.486	-29.52
697.678	85.16
697.87	-52.05
698.062	60.59
698.254	99.5
698.446	-80.72
698.638	17.58
698.83	144.55
699.022	-19.29
699.215	-35.67
699.407	44.2
699.599	-15.19
699.791	60.59
699.983	-0.85
700.175	101.55
700.367	46.25
700.558	13.48
700.75	-54.1
700.942	-56.15
701.134	64.68
701.326	-95.06
701.518	64.68
701.71	50.35
701.902	50.35
702.094	-4.95
702.286	-109.4
702.477	1.19
702.669	89.26
702.861	-45.91
703.053	-66.39
703.245	15.53
703.436	-125.78
703.628	-62.29
703.82	85.16
704.012	-31.57
704.203	-47.96
704.395	62.63
704.587	13.48
704.779	-21.33
704.97	40.11
705.162	48.3
705.354	593.06
705.545	5987.41
705.737	10951.68
705.929	12207.09
706.12	8905.76
706.312	4097.13
706.503	2751.62
706.695	332.97
706.887	365.73
707.078	27.82
707.27	29.87
707.461	-76.63
707.653	-25.43
707.844	50.35
708.036	105.64
708.227	70.83
708.419	44.2
708.61	27.82
708.802	-41.81
708.993	54.44
709.185	54.44
709.376	13.48
709.567	66.73
709.759	31.91
709.95	17.58
710.141	70.83
710.333	68.78
710.524	25.77
710.716	25.77
710.907	-31.57
711.098	158.89
711.289	105.64
711.481	27.82
711.672	-109.4
711.863	111.78
712.055	-62.29
712.246	7.34
712.437	-66.39
712.628	134.31
712.82	11.43
713.011	52.39
713.202	-88.92
713.393	48.3
713.584	44.2
713.775	48.3
713.967	5.29
714.158	42.15
714.349	103.59
714.54	-17.24
714.731	-17.24
714.922	46.25
715.113	66.73
715.304	-70.48
715.495	3.24
715.686	111.78
715.877	40.11
716.068	-103.25
716.259	-84.82
716.45	101.55
716.641	1.19
716.832	60.59
717.023	79.02
717.214	42.15
717.405	-43.86
717.596	-64.34
717.787	79.02
717.978	-4.95
718.169	25.77
718.36	19.63
718.55	13.48
718.741	81.07
718.932	-9.05
719.123	-4.95
719.314	-15.19
719.505	-50
719.695	15.53
719.886	-15.19
720.077	48.3
720.268	29.87
720.458	9.39
720.649	-80.72
720.84	36.01
721.031	7.34
721.221	15.53
721.412	-31.57
721.603	-35.67
721.793	95.4
721.984	13.48
722.175	-68.44
722.365	-17.24
722.556	44.2
722.746	-9.05
722.937	83.11
723.128	-88.92
723.318	19.63
723.509	46.25
723.699	-4.95
723.89	5.29
724.08	-41.81
724.271	-27.48
724.461	70.83
724.652	162.98
724.842	68.78
725.033	-17.24
725.223	-41.81
725.414	64.68
725.604	-39.76
725.794	93.35
725.985	46.25
726.175	23.72
726.366	13.48
726.556	5.29
726.746	9.39
726.937	-103.25
727.127	66.73
727.317	-62.29
727.508	5.29
727.698	44.2
727.888	-25.43
728.079	-17.24
728.269	-90.96
728.459	105.64
728.649	52.39
728.84	-19.29
729.03	-60.24
729.22	-9.05
729.41	48.3
729.6	9.39
729.791	-78.68
729.981	54.44
730.171	38.06
730.361	54.44
730.551	-15.19
730.741	-37.72
730.931	-76.63
731.121	27.82
731.311	87.21
731.502	29.87
731.692	-29.52
731.882	9.39
732.072	36.01
732.262	58.54
732.452	19.63
732.642	-37.72
732.832	-39.76
733.022	79.02
733.212	9.39
733.402	29.87
733.591	64.68
733.781	-45.91
733.971	-23.38
734.161	46.25
734.351	-72.53
734.541	19.63
734.731	1.19
734.921	105.64
735.111	-35.67
735.3	89.26
735.49	-52.05
735.68	56.49
735.87	-45.91
736.06	66.73
736.249	95.4
736.439	17.58
736.629	38.06
736.819	29.87
737.008	1539.22
737.198	6104.14
737.388	19088.26
737.577	23782.21
737.767	15096.77
737.957	13353.95
738.146	8975.39
738.336	3495.03
738.526	3542.13
738.715	865.44
738.905	306.34
739.094	66.73
739.284	85.16
739.474	66.73
739.663	31.91
739.853	29.87
740.042	-29.52
740.232	-74.58
740.421	11.43
740.611	60.59
740.8	-19.29
740.99	17.58
741.179	-35.67
741.369	87.21
741.558	-60.24
741.748	-2.9
741.937	105.64
742.126	99.5
742.316	-56.15
742.505	9.39
742.695	25.77
742.884	-2.9
743.073	122.02
743.263	36.01
743.452	21.67
743.641	48.3
743.831	74.92
744.02	-19.29
744.209	60.59
744.398	-68.44
744.588	-13.14
744.777	48.3
744.966	-82.77
745.155	-23.38
745.345	-17.24
745.534	48.3
745.723	36.01
745.912	105.64
746.101	-99.16
746.29	15.53
746.48	156.84
746.669	-58.2
746.858	95.4
747.047	-21.33
747.236	29.87
747.425	-52.05
747.614	40.11
747.803	46.25
747.992	48.3
748.181	21.67
748.37	29.87
748.559	-2.9
748.748	-17.24
748.937	148.65
749.126	939.16
749.315	3900.53
749.504	10032.15
749.693	15930.3
749.882	13753.3
750.071	11088.9
750.26	14904.26
750.449	15516.61
750.638	22258.52
750.826	23196.49
751.015	16589.74
751.204	12276.72
751.393	10996.74
751.582	4959.33
751.771	3916.91
751.959	1791.12
752.148	818.33
752.337	302.25
752.526	76.97
752.714	97.45
752.903	-29.52
753.092	91.31
753.281	29.87
753.469	83.11
753.658	-27.48
753.847	15.53
754.035	36.01
754.224	169.13
754.413	101.55
754.601	17.58
754.79	50.35
754.979	74.92
755.167	70.83
755.356	15.53
755.544	64.68
755.733	48.3
755.921	42.15
756.11	3.24
756.298	19.63
756.487	-35.67
756.675	-66.39
756.864	46.25
757.052	-0.85
757.241	-62.29
757.429	99.5
757.618	66.73
757.806	-37.72
757.995	-27.48
758.183	-7
758.371	33.96
758.56	-41.81
758.748	-9.05
758.937	36.01
759.125	40.11
759.313	83.11
759.502	21.67
759.69	-33.62
759.878	42.15
760.066	-64.34
760.255	-29.52
760.443	42.15
760.631	17.58
760.819	-13.14
761.008	64.68
761.196	54.44
761.384	76.97
761.572	156.84
761.761	99.5
761.949	1229.98
762.137	1985.68
762.325	10791.94
762.513	22829.9
762.701	33139.38
762.889	40899.13
763.077	39670.35
763.266	26979.09
763.454	22928.2
763.642	17867.67
763.83	11848.69
764.018	8287.28
764.206	6806.59
764.394	2901.12
764.582	2139.27
764.77	507.04
764.958	224.42
765.146	85.16
765.334	42.15
765.522	150.7
765.71	-86.87
765.898	-19.29
766.085	-13.14
766.273	158.89
766.461	3.24
766.649	58.54
766.837	21.67
767.025	-56.15
767.213	-43.86
767.401	-7
767.588	-7
767.776	-43.86
767.964	-27.48
768.152	-4.95
768.339	-60.24
768.527	-27.48
768.715	95.4
768.903	1.19
769.09	17.58
769.278	9.39
769.466	36.01
769.654	-86.87
769.841	11.43
770.029	93.35
770.217	-101.2
770.404	95.4
770.592	-62.29
770.779	13.48
770.967	-54.1
771.155	124.07
771.342	1782.93
771.53	10687.5
771.717	17951.64
771.905	12620.78
772.092	11303.93
772.28	8485.93
772.467	5170.27
772.655	2057.36
772.842	1277.08
773.03	183.46
773.217	148.65
773.405	-70.48
773.592	38.06
773.78	23.72
773.967	3.24
774.154	50.35
774.342	54.44
774.529	21.67
774.717	21.67
774.904	-27.48
775.091	64.68
775.279	21.67
775.466	58.54
775.653	-25.43
775.841	-0.85
776.028	-21.33
776.215	46.25
776.402	3.24
776.59	89.26
776.777	-54.1
776.964	66.73
777.151	15.53
777.338	-21.33
777.526	-23.38
777.713	-11.09
777.9	-7
778.087	113.83
778.274	48.3
778.461	9.39
778.649	17.58
778.836	-9.05
779.023	-95.06
779.21	46.25
779.397	-60.24
779.584	27.82
779.771	23.72
779.958	-37.72
780.145	165.03
780.332	-0.85
780.519	7.34
780.706	52.39
780.893	-2.9
781.08	-43.86
781.267	5.29
781.454	-56.15
781.641	97.45
781.828	126.12
782.015	-9.05
782.202	29.87
782.388	-19.29
782.575	-15.19
782.762	50.35
782.949	99.5
783.136	62.63
783.323	56.49
783.509	109.74
783.696	74.92
783.883	109.74
784.07	36.01
784.257	64.68
784.443	91.31
784.63	-54.1
784.817	36.01
785.004	-47.96
785.19	-66.39
785.377	-107.35
785.564	11.43
785.75	-0.85
785.937	3.24
786.124	97.45
786.31	31.91
786.497	105.64
786.683	58.54
786.87	27.82
787.057	27.82
787.243	29.87
787.43	-43.86
787.616	25.77
787.803	-39.76
787.989	29.87
788.176	44.2
788.362	115.88
788.549	-50
788.735	91.31
788.922	-17.24
789.108	29.87
789.295	3.24
789.481	-37.72
789.668	-78.68
789.854	-86.87
790.04	64.68
790.227	23.72
790.413	-56.15
790.599	-78.68
790.786	36.01
790.972	31.91
791.158	-4.95
791.345	91.31
791.531	-74.58
791.717	105.64
791.904	-19.29
792.09	52.39
792.276	-37.72
792.462	-86.87
792.649	85.16
792.835	165.03
793.021	62.63
793.207	46.25
793.393	46.25
793.58	15.53
793.766	97.45
793.952	1420.44
794.138	7840.82
794.324	11437.05
794.51	12262.38
794.696	8160.3
794.882	5166.17
795.069	3075.2
795.255	2167.95
795.441	216.23
795.627	244.9
795.813	124.07
795.999	11.43
796.185	81.07
796.371	85.16
796.557	-21.33
796.743	99.5
796.929	17.58
797.115	5.29
797.3	97.45
797.486	-43.86
797.672	15.53
797.858	-21.33
798.044	-0.85
798.23	48.3
798.416	40.11
798.602	40.11
798.788	21.67
798.973	-37.72
799.159	50.35
799.345	46.25
799.531	-21.33
799.717	-52.05
799.902	95.4
800.088	3396.73
800.274	4961.37
800.46	5006.43
800.645	5919.82
800.831	12823.53
801.017	15326.14
801.202	13743.06
801.388	10062.87
801.574	8354.86
801.759	3673.2
801.945	2847.87
802.131	1156.25
802.316	593.06
802.502	76.97
802.687	81.07
802.873	107.69
803.058	9.39
803.244	58.54
803.43	31.91
803.615	74.92
803.801	15.53
803.986	68.78
804.172	31.91
804.357	74.92
804.543	1.19
804.728	126.12
804.913	-13.14
805.099	29.87
805.284	29.87
805.47	111.78
805.655	-31.57
805.84	9.39
806.026	-54.1
806.211	85.16
806.397	5.29
806.582	-66.39
806.767	9.39
806.953	83.11
807.138	-88.92
807.323	5.29
807.508	-70.48
807.694	-19.29
807.879	33.96
808.064	175.27
808.249	40.11
808.435	-60.24
808.62	-33.62
808.805	52.39
808.99	191.66
809.175	124.07
809.361	1584.27
809.546	3314.81
809.731	10134.54
809.916	17333.15
810.101	22342.49
810.286	20720.49
810.471	21166.95
810.656	23337.8
810.841	28316.41
811.026	32381.63
811.211	37003.89
811.396	40399.43
811.581	35904.13
811.766	29954.79
811.951	26909.46
812.136	20958.06
812.321	16577.45
812.506	12995.56
812.691	10523.66
812.876	6904.9
813.061	5190.75
813.246	3169.4
813.431	1832.08
813.616	322.73
813.801	371.88
813.986	72.87
814.17	66.73
814.355	-0.85
814.54	-0.85
814.725	-13.14
814.91	46.25
815.094	-0.85
815.279	134.31
815.464	-43.86
815.649	99.5
815.833	31.91
816.018	89.26
816.203	42.15
816.388	11.43
816.572	-52.05
816.757	36.01
816.942	-84.82
817.126	52.39
817.311	-7
817.496	119.98
817.68	76.97
817.865	-50
818.049	-13.14
818.234	33.96
818.419	-7
818.603	33.96
818.788	-21.33
818.972	66.73
819.157	-0.85
819.341	64.68
819.526	-11.09
819.71	5.29
819.895	-11.09
820.079	-15.19
820.264	-2.9
820.448	-15.19
820.633	74.92
820.817	29.87
821.001	70.83
821.186	17.58
821.37	21.67
821.554	-0.85
821.739	-0.85
821.923	-43.86
822.108	79.02
822.292	50.35
822.476	70.83
822.66	-11.09
822.845	64.68
823.029	-27.48
823.213	36.01
823.398	-15.19
823.582	105.64
823.766	95.4
823.95	83.11
824.134	-43.86
824.319	42.15
824.503	11.43
824.687	-58.2
824.871	9.39
825.055	52.39
825.239	-35.67
825.423	50.35
825.608	40.11
825.792	68.78
825.976	193.7
826.16	2260.1
826.344	4957.28
826.528	3808.37
826.712	2991.23
826.896	769.18
827.08	511.14
827.264	72.87
827.448	134.31
827.632	-43.86
827.816	-70.48
828	-15.19
828.184	1.19
828.368	23.72
828.552	31.91
828.736	-39.76
828.919	58.54
829.103	19.63
829.287	25.77
829.471	-86.87
829.655	33.96
829.839	113.83
830.023	-11.09
830.206	-56.15
830.39	-2.9
830.574	87.21
830.758	33.96
830.941	99.5
831.125	-78.68
831.309	70.83
831.493	72.87
831.676	117.93
831.86	13.48
832.044	62.63
832.227	11.43
832.411	15.53
832.595	97.45
832.778	-43.86
832.962	-13.14
833.146	17.58
833.329	-31.57
833.513	17.58
833.696	21.67
833.88	-66.39
834.064	136.36
834.247	-9.05
834.431	-31.57
834.614	11.43
834.798	-47.96
834.981	-29.52
835.165	-50
835.348	103.59
835.532	-35.67
835.715	17.58
835.898	-50
836.082	27.82
836.265	66.73
836.449	-58.2
836.632	-54.1
836.815	81.07
836.999	-17.24
837.182	-29.52
837.365	95.4
837.549	42.15
837.732	-64.34
837.915	189.61
838.099	5.29
838.282	15.53
838.465	93.35
838.648	-25.43
838.832	-9.05
839.015	-64.34
839.198	-0.85
839.381	-68.44
839.565	-115.54
839.748	-23.38
839.931	19.63
840.114	-4.95
840.297	199.85
840.48	1901.71
840.663	7500.86
840.847	10851.33
841.03	12153.84
841.213	9679.89
841.396	9178.14
841.579	6599.75
841.762	6483.02
841.945	6202.44
842.128	7697.46
842.311	11052.03
842.494	14697.42
842.677	15094.72
842.86	13186.02
843.043	10357.77
843.226	8051.76
843.409	4832.35
843.592	3828.85
843.775	1440.92
843.958	681.12
844.141	185.51
844.323	31.91
844.506	68.78
844.689	31.91
844.872	93.35
845.055	93.35
845.238	48.3
845.42	-56.15
845.603	36.01
845.786	21.67
845.969	13.48
846.152	42.15
846.334	17.58
846.517	3.24
846.7	38.06
846.883	21.67
847.065	-54.1
847.248	58.54
847.431	27.82
847.613	7.34
847.796	-43.86
847.979	13.48
848.161	7.34
848.344	85.16
848.526	66.73
848.709	-86.87
848.892	72.87
849.074	25.77
849.257	-47.96
849.439	132.26
849.622	40.11
849.804	128.17
849.987	-56.15
850.169	111.78
850.352	107.69
850.534	124.07
850.717	76.97
850.899	-17.24
851.082	-68.44
851.264	-7
851.446	7.34
851.629	15.53
851.811	58.54
851.994	-29.52
852.176	99.5
852.358	849.05
852.541	482.47
852.723	371.88
852.905	70.83
853.088	9.39
853.27	-62.29
853.452	52.39
853.635	76.97
853.817	19.63
853.999	-13.14
854.181	-33.62
854.363	-31.57
854.546	97.45
854.728	83.11
854.91	17.58
855.092	5.29
855.274	46.25
855.457	95.4
855.639	50.35
855.821	-33.62
856.003	76.97
856.185	-62.29
856.367	-35.67
856.549	44.2
856.731	-23.38
856.913	-7
857.095	-19.29
857.277	19.63
857.459	48.3
857.641	48.3
857.823	31.91
858.005	-50
858.187	-19.29
858.369	87.21
858.551	11.43
858.733	-156.5
858.915	-41.81
859.097	50.35
859.279	27.82
859.461	42.15
859.643	15.53
859.824	15.53
860.006	-37.72
860.188	91.31
860.37	-62.29
860.552	-23.38
860.734	3.24
860.915	40.11
861.097	40.11
861.279	-56.15
861.461	-50
861.642	36.01
861.824	107.69
862.006	27.82
862.188	-17.24
862.369	-13.14
862.551	17.58
862.733	-174.93
862.914	58.54
863.096	21.67
863.278	11.43
863.459	19.63
863.641	-27.48
863.822	36.01
864.004	44.2
864.185	-43.86
864.367	-15.19
864.549	97.45
864.73	25.77
864.912	19.63
865.093	-35.67
865.275	25.77
865.456	-103.25
865.638	-2.9
865.819	27.82
866.001	62.63
866.182	-13.14
866.363	38.06
866.545	29.87
866.726	-27.48
866.908	58.54
867.089	50.35
867.27	27.82
867.452	42.15
867.633	81.07
867.814	1.19
867.996	7.34
868.177	76.97
868.358	-52.05
868.54	-111.44
868.721	40.11
868.902	-80.72
869.083	-0.85
869.265	111.78
869.446	113.83
869.627	-60.24
869.808	52.39
869.989	31.91
870.171	-9.05
870.352	40.11
870.533	19.63
870.714	-56.15
870.895	-107.35
871.076	72.87
871.257	-41.81
871.438	181.42
871.619	-21.33
871.801	1.19
871.982	-62.29
872.163	33.96
872.344	-119.64
872.525	-58.2
872.706	64.68
872.887	-33.62
873.068	-21.33
873.249	-4.95
873.43	3.24
873.61	15.53
873.791	-39.76
873.972	42.15
874.153	-2.9
874.334	-29.52
874.515	-31.57
874.696	89.26
874.877	25.77
875.058	-25.43
875.238	50.35
875.419	81.07
875.6	-15.19
875.781	-7
875.962	99.5
876.142	91.31
876.323	40.11
876.504	19.63
876.685	68.78
876.865	-29.52
877.046	-13.14
877.227	85.16
877.407	-33.62
877.588	156.84
877.769	7.34
877.949	54.44
878.13	-60.24
878.311	1.19
878.491	-45.91
878.672	33.96
878.853	19.63
879.033	-23.38
879.214	-90.96
879.394	-76.63
879.575	-31.57
879.755	-52.05
879.936	50.35
880.116	-37.72
880.297	-88.92
880.477	91.31
880.658	-31.57
880.838	-31.57
881.019	-72.53
881.199	46.25
881.38	-60.24
881.56	66.73
881.74	76.97
881.921	-23.38
882.101	19.63
882.281	13.48
882.462	79.02
882.642	36.01
882.822	-0.85
883.003	-25.43
883.183	-31.57
883.363	95.4
883.544	-13.14
883.724	33.96
883.904	13.48
884.084	13.48
884.265	29.87
884.445	-41.81
884.625	17.58
884.805	17.58
884.985	97.45
885.166	-50
885.346	21.67
885.526	-15.19
885.706	56.49
885.886	29.87
886.066	89.26
886.246	9.39
886.426	17.58
886.606	40.11
886.787	-0.85
886.967	27.82
887.147	-90.96
887.327	42.15
887.507	58.54
887.687	-21.33
887.867	64.68
888.047	44.2
888.227	21.67
888.406	-15.19
888.586	-37.72
888.766	-35.67
888.946	11.43
889.126	-33.62
889.306	-41.81
889.486	25.77
889.666	107.69
889.846	76.97
890.025	-45.91
890.205	-11.09
890.385	-60.24
890.565	42.15
890.745	-13.14
890.924	-29.52
891.104	13.48
891.284	89.26
891.464	64.68
891.643	-31.57
891.823	-0.85
892.003	-11.09
892.183	-54.1
892.362	19.63
892.542	17.58
892.722	36.01
892.901	113.83
893.081	60.59
893.26	44.2
893.44	70.83
893.62	-39.76
893.799	54.44
893.979	-74.58
894.158	42.15
894.338	-4.95
894.517	11.43
894.697	-35.67
894.877	15.53
895.056	-43.86
895.236	-31.57
895.415	-39.76
895.594	-31.57
895.774	72.87
895.953	-21.33
896.133	-17.24
896.312	-74.58
896.492	48.3
896.671	79.02
896.85	11.43
897.03	138.41
897.209	54.44
897.388	-4.95
897.568	7.34
897.747	-68.44
897.926	79.02
898.106	25.77
898.285	-19.29
898.464	-86.87
898.643	23.72
898.823	21.67
899.002	-4.95
899.181	-21.33
899.36	64.68
899.54	-4.95
899.719	79.02
899.898	29.87
900.077	66.73
900.256	44.2
900.435	-19.29
900.614	-23.38
900.794	-45.91
900.973	-4.95
901.152	52.39
901.331	17.58
901.51	76.97
901.689	-29.52
901.868	1.19
902.047	38.06
902.226	40.11
902.405	-97.11
902.584	-21.33
902.763	17.58
902.942	-15.19
903.121	58.54
903.3	-25.43
903.479	-21.33
903.658	-37.72
903.837	19.63
904.015	-17.24
904.194	48.3
904.373	142.5
904.552	-2.9
904.731	91.31
904.91	109.74
905.089	29.87
905.267	5.29
905.446	36.01
905.625	113.83
905.804	-70.48
905.982	38.06
906.161	89.26
906.34	-41.81
906.519	48.3
906.697	36.01
906.876	95.4
907.055	5.29
907.233	130.22
907.412	122.02
907.591	-13.14
907.769	-4.95
907.948	40.11
908.127	-4.95
908.305	29.87
908.484	81.07
908.662	-72.53
908.841	1.19
909.019	81.07
909.198	44.2
909.377	87.21
909.555	-21.33
909.734	-0.85
909.912	21.67
910.09	-35.67
910.269	76.97
910.447	-43.86
910.626	9.39
910.804	91.31
910.983	-68.44
911.161	-62.29
911.339	-25.43
911.518	25.77
911.696	107.69
911.875	97.45
912.053	103.59
912.231	-4.95
912.41	-84.82
912.588	148.65
912.766	-35.67
912.944	-88.92
913.123	-19.29
913.301	-54.1
913.479	-70.48
913.657	3.24
913.836	314.53
914.014	187.56
914.192	156.84
914.37	-47.96
914.548	56.49
914.727	29.87
914.905	-21.33
915.083	-58.2
915.261	11.43
915.439	-21.33
915.617	-39.76
915.795	50.35
915.973	-60.24
916.151	66.73
916.329	38.06
916.508	-35.67
916.686	60.59
916.864	-138.07
917.042	-50
917.22	-156.5
917.398	9.39
917.575	54.44
917.753	154.79
917.931	60.59
918.109	-64.34
918.287	9.39
918.465	-60.24
918.643	-43.86
918.821	-35.67
918.999	23.72
919.177	-29.52
919.354	54.44
919.532	7.34
919.71	56.49
919.888	33.96
920.066	-62.29
920.243	-23.38
920.421	-2.9
920.599	40.11
920.777	-19.29
920.954	76.97
921.132	-39.76
921.31	5.29
921.488	-25.43
921.665	23.72
921.843	50.35
922.021	46.25
922.198	17.58
922.376	56.49
922.553	-37.72
922.731	-25.43
922.909	-21.33
923.086	52.39
923.264	25.77
923.441	81.07
923.619	-78.68
923.796	13.48
923.974	-9.05
924.152	44.2
924.329	-39.76
924.507	54.44
924.684	33.96
924.861	38.06
925.039	-31.57
925.216	-72.53
925.394	62.63
925.571	27.82
925.749	-60.24
925.926	-62.29
926.103	27.82
926.281	44.2
926.458	25.77
926.635	7.34
926.813	-31.57
926.99	3.24
927.167	68.78
927.345	-43.86
927.522	-2.9
927.699	50.35
927.876	-41.81
928.054	42.15
928.231	-62.29
928.408	-76.63
928.585	33.96
928.763	17.58
928.94	23.72
929.117	19.63
929.294	-84.82
929.471	1.19
929.648	-60.24
929.825	-97.11
930.003	25.77
930.18	74.92
930.357	36.01
930.534	-7
930.711	46.25
930.888	58.54
931.065	72.87
931.242	-45.91
931.419	-95.06
931.596	97.45
931.773	111.78
931.95	1.19
932.127	-25.43
932.304	-35.67
932.481	44.2
932.658	52.39
932.835	52.39
933.011	-103.25
933.188	60.59
933.365	44.2
933.542	-9.05
933.719	68.78
933.896	-21.33
934.073	-2.9
934.249	89.26
934.426	74.92
934.603	-64.34
934.78	-74.58
934.957	97.45
935.133	-33.62
935.31	13.48
935.487	-27.48
935.664	5.29
935.84	93.35
936.017	-68.44
936.194	13.48
936.37	3.24
936.547	-50
936.724	56.49
936.9	7.34
937.077	-39.76
937.253	-4.95
937.43	-27.48
937.607	-50
937.783	-43.86
937.96	-15.19
938.136	-45.91
938.313	-23.38
938.489	109.74
938.666	89.26
938.842	68.78
939.019	-2.9
939.195	21.67
939.372	7.34
939.548	-21.33
939.725	-50
939.901	-47.96
940.077	-144.21
940.254	-107.35
940.43	33.96
940.607	-19.29
940.783	58.54
940.959	25.77
941.136	46.25
941.312	-41.81
941.488	85.16
941.665	52.39
941.841	7.34
942.017	99.5
942.193	19.63
942.37	46.25
942.546	-0.85
942.722	-37.72
942.898	52.39
943.074	-27.48
943.251	87.21
943.427	-9.05
943.603	-76.63
943.779	17.58
943.955	-95.06
944.131	-50
944.308	-27.48
944.484	-33.62
944.66	44.2
944.836	-52.05
945.012	-33.62
945.188	-37.72
945.364	72.87
945.54	-41.81
945.716	50.35
945.892	103.59
946.068	3.24
946.244	9.39
946.42	-2.9
946.596	140.46
946.772	-4.95
946.948	-27.48
947.124	83.11
947.3	3.24
947.475	27.82
947.651	-37.72
947.827	7.34
948.003	-54.1
948.179	38.06
948.355	-35.67
948.531	29.87
948.706	7.34
948.882	19.63
949.058	58.54
949.234	-2.9
949.409	7.34
949.585	-17.24
949.761	9.39
949.937	72.87
950.112	19.63
950.288	-15.19
950.464	-76.63
950.639	21.67
950.815	-2.9
950.991	-121.68
951.166	-19.29
951.342	60.59
951.518	-17.24
951.693	-99.16
951.869	83.11
952.044	3.24
952.22	33.96
952.395	58.54
952.571	-103.25
952.747	21.67
952.922	-27.48
953.098	-27.48
953.273	25.77
953.448	42.15
953.624	44.2
953.799	15.53
953.975	-70.48
954.15	-11.09
954.326	52.39
954.501	-4.95
954.676	-62.29
954.852	-90.96
955.027	9.39
955.203	-9.05
955.378	33.96
955.553	-93.01
955.729	-27.48
955.904	38.06
956.079	31.91
956.254	-15.19
956.43	-74.58
956.605	62.63
956.78	13.48
956.955	-11.09
957.131	-45.91
957.306	21.67
957.481	56.49
957.656	99.5
957.831	85.16
958.007	-21.33
958.182	79.02
958.357	119.98
958.532	-25.43
958.707	-60.24
958.882	-60.24
959.057	105.64
959.232	27.82
959.407	-107.35
959.582	72.87
959.757	9.39
959.932	-101.2
960.107	48.3
960.282	81.07
960.457	52.39
960.632	130.22
960.807	31.91
960.982	-9.05
961.157	13.48
961.332	5.29
961.507	-15.19
961.682	15.53
961.857	152.74
962.032	-23.38
962.206	74.92
962.381	-56.15
962.556	76.97
962.731	38.06
962.906	-9.05
963.081	-23.38
963.255	113.83
963.43	56.49
963.605	27.82
963.78	-2.9
963.954	85.16
964.129	144.55
964.304	-7
964.479	25.77
964.653	117.93
964.828	17.58
965.003	-58.2
965.177	9.39
965.352	58.54
965.526	-21.33
965.701	52.39
965.876	17.58
966.05	95.4
966.225	-25.43
966.399	42.15
966.574	74.92
966.748	-39.76
966.923	-2.9
967.098	-11.09
967.272	58.54
967.446	101.55
967.621	21.67
967.795	44.2
967.97	-33.62
968.144	-58.2
968.319	85.16
968.493	-45.91
968.668	-19.29
968.842	-13.14
969.016	17.58
969.191	5.29
969.365	9.39
969.539	-13.14
969.714	-13.14
969.888	83.11
970.062	-33.62
970.237	68.78
970.411	3.24
970.585	97.45
970.759	9.39
970.934	-13.14
971.108	-64.34
971.282	146.6
971.456	56.49
971.63	-52.05
971.805	5.29
971.979	76.97
972.153	-62.29
972.327	-45.91
972.501	27.82
972.675	-41.81
972.849	-123.73
973.024	-7
973.198	-50
973.372	-17.24
973.546	25.77
973.72	15.53
973.894	48.3
974.068	3.24
974.242	48.3
974.416	-33.62
974.59	-25.43
974.764	7.34
974.938	27.82
975.112	-9.05
975.286	-60.24
975.46	27.82
975.633	-58.2
975.807	142.5
975.981	-11.09
976.155	25.77
976.329	56.49
976.503	83.11
976.677	19.63
976.85	81.07
977.024	-2.9
977.198	60.59
977.372	19.63
977.546	40.11
977.719	-11.09
977.893	-4.95
978.067	-68.44
978.241	40.11
978.414	74.92
978.588	103.59
978.762	5.29
978.935	48.3
979.109	-70.48
979.283	-13.14
979.456	-9.05
979.63	31.91
979.804	-15.19
979.977	-62.29
980.151	-35.67
980.324	60.59
980.498	58.54
980.671	-72.53
980.845	-86.87
981.018	-29.52
981.192	21.67
981.365	27.82
981.539	-105.3
981.712	-43.86
981.886	-17.24
982.059	17.58
982.233	-45.91
982.406	87.21
982.58	29.87
982.753	-9.05
982.926	7.34
983.1	13.48
983.273	-11.09
983.446	-41.81
983.62	-29.52
983.793	60.59
983.966	27.82
984.14	33.96
984.313	-33.62
984.486	-17.24
984.66	-17.24
984.833	-37.72
985.006	48.3
985.179	5.29
985.352	91.31
985.526	91.31
985.699	42.15
985.872	76.97
986.045	-19.29
986.218	105.64
986.391	-62.29
986.565	15.53
986.738	-86.87
986.911	74.92
987.084	79.02
987.257	-70.48
987.43	-27.48
987.603	19.63
987.776	33.96
987.949	25.77
988.122	29.87
988.295	-64.34
988.468	21.67
988.641	-23.38
988.814	21.67
988.987	-15.19
989.16	3.24
989.333	36.01
989.506	31.91
989.679	-13.14
989.852	3.24
990.025	-15.19
990.197	-7
990.37	72.87
990.543	107.69
990.716	29.87
990.889	19.63
991.062	-70.48
991.234	-29.52
991.407	-9.05
991.58	-7
991.753	31.91
991.925	-7
992.098	60.59
992.271	-74.58
992.444	33.96
992.616	95.4
992.789	-11.09
992.962	1.19
993.134	130.22
993.307	-93.01
993.479	-19.29
993.652	1.19
993.825	23.72
993.997	50.35
994.17	50.35
994.342	13.48
994.515	25.77
994.688	-0.85
994.86	66.73
995.033	66.73
995.205	3.24
995.378	62.63
995.55	146.6
995.723	-50
995.895	5.29
996.067	1.19
996.24	-11.09
996.412	64.68
996.585	-29.52
996.757	-33.62
996.929	5.29
997.102	-13.14
997.274	42.15
997.447	87.21
997.619	79.02
997.791	89.26
997.964	42.15
998.136	11.43
998.308	25.77
998.48	-41.81
998.653	40.11
998.825	-52.05
998.997	52.39
999.169	46.25
999.342	-82.77
999.514	-4.95
999.686	5.29
999.858	27.82
1000.03	7.34
1000.202	-27.48
1000.374	-23.38
1000.547	31.91
1000.719	-27.48
1000.891	11.43
1001.063	3.24
1001.235	103.59
1001.407	60.59
1001.579	-7
1001.751	19.63
1001.923	-133.97
1002.095	56.49
1002.267	62.63
1002.439	101.55
1002.611	72.87
1002.783	13.48
1002.955	-88.92
1003.127	-0.85
1003.299	62.63
1003.471	23.72
1003.643	42.15
1003.815	-11.09
1003.986	21.67
1004.158	-13.14
1004.33	58.54
1004.502	-62.29
1004.674	-56.15
1004.846	138.41
1005.017	5.29
1005.189	52.39
1005.361	-0.85
1005.533	3.24
1005.704	-23.38
1005.876	-9.05
1006.048	52.39
1006.22	31.91
1006.391	-43.86
1006.563	13.48
1006.735	-50
1006.906	5.29
1007.078	-45.91
1007.25	19.63
1007.421	48.3
1007.593	11.43
1007.764	70.83
1007.936	-41.81
1008.108	-70.48
1008.279	17.58
1008.451	23.72
1008.622	-4.95
1008.794	38.06
1008.965	27.82
1009.137	-45.91
1009.308	50.35
1009.48	-13.14
1009.651	-13.14
1009.823	-19.29
1009.994	-23.38
1010.165	-62.29
1010.337	91.31
1010.508	-60.24
1010.68	7.34
1010.851	-56.15
1011.022	-9.05
1011.194	31.91
1011.365	-19.29
1011.536	-7
1011.708	1.19
1011.879	-0.85
1012.05	-50
1012.222	17.58
1012.393	-19.29
1012.564	-17.24
1012.735	31.91
1012.906	13.48
1013.078	-37.72
1013.249	83.11
1013.42	54.44
1013.591	-27.48
1013.762	52.39
1013.934	48.3
1014.105	-35.67
1014.276	7.34
1014.447	66.73
1014.618	-74.58
1014.789	-43.86
1014.96	-23.38
1015.131	3.24
1015.302	-43.86
1015.473	-31.57
1015.644	58.54
1015.815	-4.95
1015.986	-47.96
1016.157	74.92
1016.328	19.63
1016.499	-21.33
1016.67	21.67
1016.841	1.19
1017.012	-82.77
1017.183	11.43
1017.354	79.02
1017.525	5.29
1017.696	-2.9
1017.867	81.07
1018.037	-13.14
1018.208	91.31
1018.379	-4.95
1018.55	97.45
1018.721	5.29
1018.891	25.77
1019.062	-19.29
1019.233	-72.53
1019.404	-2.9
1019.574	21.67
1019.745	-13.14
1019.916	-27.48
1020.087	-56.15
1020.257	-0.85
1020.428	42.15
1020.599	-2.9
1020.769	31.91
1020.94	64.68
1021.11	-27.48
1021.281	-37.72
1021.452	-37.72
1021.622	38.06
1021.793	-41.81
1021.963	17.58
1022.134	-13.14
1022.305	-23.38
1022.475	-31.57
1022.646	-33.62
1022.816	44.2
1022.987	-33.62
1023.157	54.44
1023.327	76.97
1023.498	-84.82
1023.668	36.01
1023.839	48.3
1024.009	103.59
1024.18	27.82
1024.35	11.43
1024.52	-72.53
1024.691	56.49
1024.861	21.67
1025.031	-31.57
1025.202	-2.9
1025.372	-90.96
1025.542	66.73
1025.713	66.73
1025.883	-54.1
1026.053	-52.05
1026.223	-66.39
1026.394	-9.05
1026.564	36.01
1026.734	-7
1026.904	-64.34
1027.074	27.82
1027.245	56.49
1027.415	33.96
1027.585	156.84
1027.755	33.96
1027.925	144.55
1028.095	56.49
1028.265	-11.09
1028.435	-50
1028.606	52.39
1028.776	-11.09
1028.946	97.45
1029.116	52.39
1029.286	-17.24
1029.456	48.3
1029.626	46.25
1029.796	40.11
1029.966	72.87
1030.136	-56.15
1030.306	-97.11
1030.475	40.11
1030.645	-2.9
1030.815	130.22
1030.985	72.87
1031.155	42.15
1031.325	42.15
1031.495	44.2
1031.665	-35.67
1031.835	-76.63
1032.004	-52.05
1032.174	23.72
1032.344	-19.29
1032.514	-17.24
1032.684	54.44
1032.853	72.87
1033.023	-2.9
1033.193	38.06
1033.362	-37.72
1033.532	7.34
1033.702	36.01
1033.872	-41.81
1034.041	1.19
1034.211	-45.91
1034.381	7.34
1034.55	-111.44
1034.72	60.59
1034.889	11.43
1035.059	11.43
1035.229	-84.82
1035.398	31.91
1035.568	-66.39
1035.737	13.48
1035.907	81.07
1036.076	130.22
1036.246	-19.29
1036.415	81.07
1036.585	23.72
1036.754	-21.33
1036.924	93.35
1037.093	50.35
1037.263	-93.01
1037.432	107.69
1037.601	-97.11
1037.771	-0.85
1037.94	31.91
1038.11	93.35
1038.279	38.06
1038.448	-119.64
1038.618	105.64
1038.787	29.87
1038.956	33.96
1039.126	-97.11
1039.295	3.24
1039.464	50.35
1039.633	19.63
1039.803	-4.95
1039.972	-43.86
1040.141	33.96
1040.31	62.63
1040.479	52.39
1040.649	25.77
1040.818	101.55
1040.987	23.72
1041.156	56.49
1041.325	-2.9
1041.494	11.43
1041.663	21.67
1041.833	-47.96
1042.002	91.31
1042.171	38.06
1042.34	-50
1042.509	-0.85
1042.678	-56.15
