Data from LSP87_F9_Subt2_17-48-41-583.txt Node
Date: Tue Aug 22 17:48:41 EDT 2023
User: Emmanuel
Spectrometer: USB4A00615
Scans to average: 1
Trigger mode: 1
Integration Time (sec): 5.000000E-3
Electric dark correction enabled: true
Boxcar width: 0
XAxis mode: Wavelengths
Number of Pixels in Spectrum: 3648
>>>>>Begin Spectral Data<<<<<
346.606	25.26
346.818	25.26
347.029	25.26
347.241	-21.85
347.452	-11.61
347.664	115.37
347.876	-64.85
348.087	88.75
348.299	-85.33
348.51	-17.75
348.722	-54.61
348.933	51.88
349.145	41.64
349.356	-32.08
349.568	60.07
349.779	-5.46
349.991	-97.62
350.202	72.36
350.414	-5.46
350.625	45.74
350.836	37.55
351.048	-19.8
351.259	27.31
351.471	60.07
351.682	10.92
351.893	-36.18
352.105	-73.04
352.316	43.69
352.527	127.66
352.739	90.79
352.95	72.36
353.161	12.97
353.372	-25.94
353.584	105.13
353.795	-50.52
354.006	12.97
354.217	29.35
354.429	39.59
354.64	84.65
354.851	35.5
355.062	12.97
355.274	53.93
355.485	15.02
355.696	-23.89
355.907	21.16
356.118	17.07
356.329	-23.89
356.54	-5.46
356.752	29.35
356.963	96.94
357.174	58.03
357.385	39.59
357.596	-44.37
357.807	43.69
358.018	19.11
358.229	96.94
358.44	-40.28
358.651	-13.65
358.862	-44.37
359.073	53.93
359.284	107.18
359.495	-9.56
359.706	0.68
359.917	8.87
360.128	4.78
360.339	35.5
360.55	-48.47
360.761	-5.46
360.972	58.03
361.182	-5.46
361.393	-60.76
361.604	-34.13
361.815	-3.41
362.026	66.22
362.237	4.78
362.447	43.69
362.658	-36.18
362.869	82.6
363.08	37.55
363.291	51.88
363.501	0.68
363.712	-34.13
363.923	66.22
364.134	-36.18
364.344	-27.99
364.555	58.03
364.766	-44.37
364.976	-1.37
365.187	17.07
365.398	15.02
365.608	-11.61
365.819	82.6
366.03	27.31
366.24	37.55
366.451	25.26
366.662	119.46
366.872	-21.85
367.083	33.45
367.293	-89.43
367.504	86.7
367.714	-1.37
367.925	-52.56
368.135	-136.53
368.346	88.75
368.557	-11.61
368.767	76.46
368.977	45.74
369.188	29.35
369.398	-56.66
369.609	62.12
369.819	105.13
370.03	70.31
370.24	45.74
370.451	12.97
370.661	23.21
370.871	29.35
371.082	82.6
371.292	76.46
371.502	-23.89
371.713	-25.94
371.923	66.22
372.133	39.59
372.344	-23.89
372.554	68.27
372.764	-27.99
372.975	-60.76
373.185	41.64
373.395	-19.8
373.605	-81.24
373.816	-3.41
374.026	-87.38
374.236	2.73
374.446	-48.47
374.656	-15.7
374.867	101.03
375.077	-5.46
375.287	-77.14
375.497	-40.28
375.707	-66.9
375.917	62.12
376.127	15.02
376.338	74.41
376.548	-30.04
376.758	92.84
376.968	86.7
377.178	-19.8
377.388	-56.66
377.598	-3.41
377.808	47.79
378.018	111.27
378.228	2.73
378.438	41.64
378.648	55.98
378.858	21.16
379.068	-44.37
379.278	78.51
379.488	-15.7
379.698	123.56
379.908	8.87
380.118	-23.89
380.327	-3.41
380.537	15.02
380.747	-40.28
380.957	-52.56
381.167	64.17
381.377	4.78
381.587	109.23
381.796	4.78
382.006	-87.38
382.216	10.92
382.426	55.98
382.636	-19.8
382.845	-1.37
383.055	86.7
383.265	37.55
383.475	19.11
383.684	139.94
383.894	-23.89
384.104	41.64
384.313	27.31
384.523	45.74
384.733	35.5
384.942	-93.52
385.152	21.16
385.362	29.35
385.571	15.02
385.781	19.11
385.991	-7.51
386.2	-17.75
386.41	-54.61
386.619	-23.89
386.829	-1.37
387.038	31.4
387.248	39.59
387.457	10.92
387.667	-7.51
387.876	74.41
388.086	-27.99
388.295	76.46
388.505	-44.37
388.714	58.03
388.924	6.83
389.133	49.83
389.343	125.61
389.552	-64.85
389.762	78.51
389.971	115.37
390.18	15.02
390.39	51.88
390.599	-105.81
390.808	-46.42
391.018	2.73
391.227	68.27
391.436	-11.61
391.646	45.74
391.855	70.31
392.064	49.83
392.274	60.07
392.483	78.51
392.692	-44.37
392.901	47.79
393.111	41.64
393.32	-1.37
393.529	33.45
393.738	98.99
393.947	66.22
394.157	-17.75
394.366	53.93
394.575	-99.67
394.784	35.5
394.993	-7.51
395.202	-17.75
395.411	8.87
395.62	82.6
395.83	-56.66
396.039	0.68
396.248	8.87
396.457	-38.23
396.666	-56.66
396.875	-7.51
397.084	-7.51
397.293	47.79
397.502	12.97
397.711	62.12
397.92	58.03
398.129	101.03
398.338	6.83
398.547	119.46
398.756	41.64
398.965	27.31
399.174	62.12
399.382	-46.42
399.591	-32.08
399.8	74.41
400.009	39.59
400.218	21.16
400.427	78.51
400.636	-15.7
400.844	-1.37
401.053	-62.8
401.262	-105.81
401.471	-120.15
401.68	2.73
401.888	-17.75
402.097	-30.04
402.306	98.99
402.515	-34.13
402.723	43.69
402.932	-7.51
403.141	12.97
403.35	43.69
403.558	-91.48
403.767	-42.32
403.976	-27.99
404.184	12.97
404.393	-9.56
404.602	119.46
404.81	53.93
405.019	39.59
405.227	-7.51
405.436	-77.14
405.645	33.45
405.853	98.99
406.062	152.23
406.27	33.45
406.479	15.02
406.687	25.26
406.896	111.27
407.104	25.26
407.313	-21.85
407.521	-5.46
407.73	105.13
407.938	129.7
408.147	29.35
408.355	-42.32
408.563	51.88
408.772	76.46
408.98	39.59
409.189	-109.91
409.397	-34.13
409.605	31.4
409.814	62.12
410.022	-73.04
410.23	31.4
410.439	-40.28
410.647	-32.08
410.855	-11.61
411.064	109.22
411.272	-32.08
411.48	107.18
411.688	19.11
411.897	107.18
412.105	-17.75
412.313	17.07
412.521	144.04
412.73	86.7
412.938	6.83
413.146	-95.57
413.354	27.31
413.562	-64.85
413.77	-68.95
413.979	-130.39
414.187	-169.3
414.395	6.83
414.603	4.78
414.811	33.45
415.019	-1.37
415.227	-21.85
415.435	12.97
415.643	-40.28
415.851	-40.28
416.059	-44.37
416.267	60.07
416.475	68.27
416.683	15.02
416.891	-95.57
417.099	15.02
417.307	-11.61
417.515	-38.23
417.723	35.5
417.931	6.83
418.139	23.21
418.347	90.79
418.555	-21.85
418.763	47.79
418.971	58.03
419.179	8.87
419.386	47.79
419.594	-64.85
419.802	41.64
420.01	84.65
420.218	-34.13
420.426	-60.76
420.633	10.92
420.841	74.41
421.049	39.59
421.257	96.94
421.464	-7.51
421.672	-1.37
421.88	131.75
422.088	80.55
422.295	55.98
422.503	-66.9
422.711	23.21
422.918	-27.99
423.126	94.89
423.334	-34.13
423.541	-3.41
423.749	-34.13
423.956	0.68
424.164	4.78
424.372	-32.08
424.579	60.07
424.787	-17.75
424.994	21.16
425.202	51.88
425.409	68.27
425.617	92.84
425.824	41.64
426.032	-95.57
426.239	-46.42
426.447	2.73
426.654	-38.23
426.862	43.69
427.069	86.7
427.277	78.51
427.484	2.73
427.692	2.73
427.899	47.79
428.106	37.55
428.314	12.97
428.521	-11.61
428.728	123.56
428.936	0.68
429.143	49.83
429.351	-58.71
429.558	23.21
429.765	105.13
429.972	33.45
430.18	15.02
430.387	4.78
430.594	23.21
430.801	43.69
431.009	2.73
431.216	27.31
431.423	29.35
431.63	70.31
431.838	64.17
432.045	-32.08
432.252	154.28
432.459	45.74
432.666	64.17
432.873	19.11
433.081	-1.37
433.288	47.79
433.495	10.92
433.702	15.02
433.909	-5.46
434.116	55.98
434.323	15.02
434.53	2.73
434.737	-97.62
434.944	72.36
435.151	4.78
435.358	-60.76
435.565	8.87
435.772	-30.04
435.979	74.41
436.186	37.55
436.393	29.35
436.6	-15.7
436.807	68.27
437.014	33.45
437.221	-11.61
437.428	-17.75
437.635	21.16
437.841	-109.91
438.048	8.87
438.255	23.21
438.462	51.88
438.669	15.02
438.876	4.78
439.082	43.69
439.289	62.12
439.496	74.41
439.703	-25.94
439.91	31.4
440.116	98.99
440.323	23.21
440.53	-7.51
440.737	-21.85
440.943	41.64
441.15	125.61
441.357	17.07
441.563	80.55
441.77	-34.13
441.977	-44.37
442.183	-40.28
442.39	23.21
442.597	70.31
442.803	64.17
443.01	58.03
443.216	-1.37
443.423	78.51
443.63	-60.76
443.836	15.02
444.043	35.5
444.249	39.59
444.456	39.59
444.662	-116.05
444.869	137.9
445.075	70.31
445.282	-89.43
445.488	-58.71
445.695	55.98
445.901	172.71
446.107	-54.61
446.314	27.31
446.52	60.07
446.727	-3.41
446.933	55.98
447.139	-56.66
447.346	47.79
447.552	-56.66
447.759	-19.8
447.965	117.42
448.171	17.07
448.378	62.12
448.584	2.73
448.79	0.68
448.996	125.61
449.203	-30.04
449.409	55.98
449.615	58.03
449.821	12.97
450.028	-7.51
450.234	125.61
450.44	58.03
450.646	-38.23
450.852	-1.37
451.059	-7.51
451.265	21.16
451.471	43.69
451.677	129.7
451.883	-77.14
452.089	53.93
452.295	62.12
452.502	60.07
452.708	25.26
452.914	-21.85
453.12	37.55
453.326	62.12
453.532	-3.41
453.738	17.07
453.944	2.73
454.15	33.45
454.356	-36.18
454.562	58.03
454.768	0.68
454.974	150.18
455.18	19.11
455.386	78.51
455.592	53.93
455.798	25.26
456.003	86.7
456.209	78.51
456.415	-56.66
456.621	55.98
456.827	-11.61
457.033	-1.37
457.239	12.97
457.444	78.51
457.65	19.11
457.856	74.41
458.062	-75.09
458.268	125.61
458.473	-42.32
458.679	58.03
458.885	60.07
459.091	39.59
459.296	4.78
459.502	-138.58
459.708	15.02
459.914	55.98
460.119	-15.7
460.325	12.97
460.531	-7.51
460.736	78.51
460.942	49.83
461.147	68.27
461.353	15.02
461.559	35.5
461.764	29.35
461.97	78.51
462.175	-136.53
462.381	148.14
462.587	66.22
462.792	-25.94
462.998	4.78
463.203	-3.41
463.409	33.45
463.614	-19.8
463.82	17.07
464.025	158.38
464.231	55.98
464.436	90.79
464.641	0.68
464.847	29.35
465.052	-64.85
465.258	17.07
465.463	115.37
465.669	111.27
465.874	72.36
466.079	43.69
466.285	-27.99
466.49	35.5
466.695	-97.62
466.901	29.35
467.106	-38.23
467.311	0.68
467.516	-15.7
467.722	19.11
467.927	4.78
468.132	-60.76
468.338	62.12
468.543	-17.75
468.748	47.79
468.953	-17.75
469.158	8.87
469.364	33.45
469.569	35.5
469.774	-7.51
469.979	-15.7
470.184	33.45
470.389	-48.47
470.594	-109.91
470.8	12.97
471.005	51.88
471.21	-11.61
471.415	21.16
471.62	-34.13
471.825	43.69
472.03	-73.04
472.235	43.69
472.44	4.78
472.645	90.79
472.85	29.35
473.055	90.79
473.26	49.83
473.465	6.83
473.67	55.98
473.875	49.83
474.08	6.83
474.285	15.02
474.49	15.02
474.695	6.83
474.899	76.46
475.104	-52.56
475.309	86.7
475.514	-17.75
475.719	64.17
475.924	-17.75
476.128	58.03
476.333	21.16
476.538	19.11
476.743	-56.66
476.948	64.17
477.152	53.93
477.357	8.87
477.562	-13.65
477.767	33.45
477.971	64.17
478.176	19.11
478.381	25.26
478.585	-25.94
478.79	33.45
478.995	84.65
479.199	-27.99
479.404	-13.65
479.609	-85.33
479.813	115.37
480.018	47.79
480.223	72.36
480.427	152.23
480.632	92.84
480.836	-32.08
481.041	8.87
481.245	-11.61
481.45	101.03
481.654	-114
481.859	29.35
482.063	33.45
482.268	72.36
482.472	58.03
482.677	-34.13
482.881	-60.76
483.086	90.79
483.29	90.79
483.495	-44.37
483.699	45.74
483.903	27.31
484.108	121.51
484.312	76.46
484.517	45.74
484.721	21.16
484.925	-1.37
485.13	4.78
485.334	-13.65
485.538	133.8
485.743	-32.08
485.947	19.11
486.151	49.83
486.355	-7.51
486.56	49.83
486.764	68.27
486.968	47.79
487.172	21.16
487.377	111.27
487.581	-44.37
487.785	27.31
487.989	141.99
488.193	-11.61
488.397	-13.65
488.602	-11.61
488.806	215.72
489.01	-30.04
489.214	-15.7
489.418	43.69
489.622	12.97
489.826	86.7
490.03	-66.9
490.234	45.74
490.438	4.78
490.642	6.83
490.846	-62.8
491.05	25.26
491.254	19.11
491.458	35.5
491.662	64.17
491.866	29.35
492.07	10.92
492.274	31.4
492.478	-40.28
492.682	78.51
492.886	35.5
493.09	111.27
493.294	19.11
493.498	113.32
493.701	2.73
493.905	15.02
494.109	-56.66
494.313	166.57
494.517	4.78
494.721	-13.65
494.924	17.07
495.128	23.21
495.332	94.89
495.536	10.92
495.739	31.4
495.943	-40.28
496.147	43.69
496.351	72.36
496.554	-73.04
496.758	-9.56
496.962	33.45
497.165	80.55
497.369	33.45
497.573	19.11
497.776	144.04
497.98	-1.37
498.184	51.88
498.387	51.88
498.591	17.07
498.794	-3.41
498.998	-56.66
499.202	4.78
499.405	29.35
499.609	19.11
499.812	-9.56
500.016	-56.66
500.219	107.18
500.423	107.18
500.626	96.94
500.83	-1.37
501.033	84.65
501.237	256.68
501.44	152.23
501.643	35.5
501.847	133.8
502.05	43.69
502.254	2.73
502.457	19.11
502.66	-9.56
502.864	-11.61
503.067	47.79
503.271	31.4
503.474	-1.37
503.677	62.12
503.88	39.59
504.084	23.21
504.287	-30.04
504.49	137.9
504.694	35.5
504.897	80.55
505.1	189.1
505.303	133.8
505.507	74.41
505.71	131.75
505.913	49.83
506.116	101.03
506.319	62.12
506.522	84.65
506.726	62.12
506.929	72.36
507.132	45.74
507.335	117.42
507.538	15.02
507.741	47.79
507.944	133.8
508.147	25.26
508.35	-44.37
508.553	201.38
508.756	31.4
508.959	-38.23
509.163	-7.51
509.366	39.59
509.569	-17.75
509.771	53.93
509.974	4.78
510.177	43.69
510.38	70.31
510.583	15.02
510.786	37.55
510.989	-23.89
511.192	152.23
511.395	78.51
511.598	-42.32
511.801	88.75
512.004	35.5
512.206	105.13
512.409	-25.94
512.612	43.69
512.815	53.93
513.018	19.11
513.22	-7.51
513.423	55.98
513.626	-13.65
513.829	64.17
514.032	166.57
514.234	-3.41
514.437	33.45
514.64	62.12
514.842	25.26
515.045	19.11
515.248	103.08
515.45	68.27
515.653	35.5
515.856	49.83
516.058	8.87
516.261	-13.65
516.464	19.11
516.666	35.5
516.869	70.31
517.071	-19.8
517.274	19.11
517.477	78.51
517.679	33.45
517.882	139.94
518.084	17.07
518.287	17.07
518.489	60.07
518.692	121.51
518.894	-21.85
519.097	23.21
519.299	8.87
519.501	60.07
519.704	33.45
519.906	51.88
520.109	109.22
520.311	2.73
520.514	133.8
520.716	-11.61
520.918	125.61
521.121	78.51
521.323	119.46
521.525	8.87
521.728	92.84
521.93	10.92
522.132	574.11
522.335	201.38
522.537	92.84
522.739	68.27
522.941	66.22
523.144	31.4
523.346	21.16
523.548	19.11
523.75	86.7
523.952	45.74
524.155	121.51
524.357	-5.46
524.559	-32.08
524.761	19.11
524.963	64.17
525.165	39.59
525.368	60.07
525.57	137.9
525.772	25.26
525.974	-1.37
526.176	41.64
526.378	-50.52
526.58	45.74
526.782	6.83
526.984	-36.18
527.186	-42.32
527.388	-44.37
527.59	139.94
527.792	68.27
527.994	-48.47
528.196	-34.13
528.398	47.79
528.6	68.27
528.802	10.92
529.004	-7.51
529.206	35.5
529.408	-36.18
529.609	29.35
529.811	84.65
530.013	-23.89
530.215	53.93
530.417	29.35
530.619	39.59
530.821	60.07
531.022	29.35
531.224	117.42
531.426	139.94
531.628	141.99
531.829	-48.47
532.031	101.03
532.233	103.08
532.435	35.5
532.636	27.31
532.838	-1.37
533.04	15.02
533.241	-36.18
533.443	86.7
533.645	-32.08
533.846	23.21
534.048	23.21
534.25	33.45
534.451	92.84
534.653	51.88
534.855	45.74
535.056	-71
535.258	41.64
535.459	88.75
535.661	60.07
535.862	-23.89
536.064	17.07
536.265	-21.85
536.467	37.55
536.668	96.94
536.87	68.27
537.071	84.65
537.273	80.55
537.474	-75.09
537.676	23.21
537.877	-5.46
538.078	51.88
538.28	76.46
538.481	68.27
538.683	117.42
538.884	166.57
539.085	-38.23
539.287	8.87
539.488	39.59
539.689	78.51
539.891	86.7
540.092	31.4
540.293	23.21
540.495	-13.65
540.696	-77.14
540.897	-19.8
541.098	33.45
541.3	-19.8
541.501	21.16
541.702	68.27
541.903	109.22
542.104	101.03
542.306	-58.71
542.507	45.74
542.708	96.94
542.909	-17.75
543.11	58.03
543.311	49.83
543.512	39.59
543.713	29.35
543.915	101.03
544.116	78.51
544.317	-5.46
544.518	78.51
544.719	70.31
544.92	10.92
545.121	-54.61
545.322	76.46
545.523	60.07
545.724	23.21
545.925	12.97
546.126	43.69
546.327	27.31
546.528	146.09
546.729	-38.23
546.929	60.07
547.13	31.4
547.331	-50.52
547.532	152.23
547.733	-157.01
547.934	84.65
548.135	-64.85
548.336	-3.41
548.536	-5.46
548.737	121.51
548.938	117.42
549.139	94.89
549.34	62.12
549.54	-42.32
549.741	33.45
549.942	15.02
550.143	2.73
550.343	60.07
550.544	68.27
550.745	35.5
550.945	84.65
551.146	25.26
551.347	33.45
551.547	8.87
551.748	4.78
551.949	58.03
552.149	88.75
552.35	12.97
552.551	78.51
552.751	27.31
552.952	10.92
553.152	66.22
553.353	12.97
553.553	-52.56
553.754	109.22
553.954	58.03
554.155	-93.52
554.356	146.09
554.556	8.87
554.756	29.35
554.957	-9.56
555.157	-38.23
555.358	47.79
555.558	4.78
555.759	53.93
555.959	23.21
556.159	8.87
556.36	152.23
556.56	51.88
556.761	96.94
556.961	90.79
557.161	60.07
557.362	10.92
557.562	4.78
557.762	-60.76
557.963	92.84
558.163	4.78
558.363	-34.13
558.563	33.45
558.764	-38.23
558.964	96.94
559.164	-79.19
559.364	88.75
559.565	55.98
559.765	55.98
559.965	74.41
560.165	-9.56
560.365	21.16
560.565	-13.65
560.766	33.45
560.966	-1.37
561.166	-81.24
561.366	101.03
561.566	72.36
561.766	88.75
561.966	-17.75
562.166	109.22
562.366	47.79
562.566	111.27
562.766	23.21
562.966	80.55
563.166	58.03
563.366	35.5
563.566	64.17
563.766	58.03
563.966	96.94
564.166	98.99
564.366	4.78
564.566	27.31
564.766	-30.04
564.966	15.02
565.166	-7.51
565.366	66.22
565.565	-27.99
565.765	2.73
565.965	-64.85
566.165	29.35
566.365	10.92
566.565	76.46
566.764	66.22
566.964	-56.66
567.164	-38.23
567.364	-13.65
567.564	31.4
567.763	-38.23
567.963	37.55
568.163	31.4
568.362	10.92
568.562	144.04
568.762	-3.41
568.961	64.17
569.161	41.64
569.361	25.26
569.56	51.88
569.76	15.02
569.96	15.02
570.159	78.51
570.359	90.79
570.558	72.36
570.758	47.79
570.958	19.11
571.157	39.59
571.357	21.16
571.556	84.65
571.756	31.4
571.955	-11.61
572.155	96.94
572.354	-5.46
572.554	76.46
572.753	82.6
572.953	103.08
573.152	-36.18
573.351	33.45
573.551	45.74
573.75	0.68
573.95	51.88
574.149	137.9
574.348	80.55
574.548	19.11
574.747	-66.9
574.946	199.34
575.146	-56.66
575.345	51.88
575.544	-1.37
575.744	131.75
575.943	2.73
576.142	62.12
576.342	12.97
576.541	25.26
576.74	-64.85
576.939	96.94
577.138	64.17
577.338	43.69
577.537	-9.56
577.736	90.79
577.935	86.7
578.134	111.27
578.333	-11.61
578.533	-5.46
578.732	98.99
578.931	49.83
579.13	92.84
579.329	-64.85
579.528	53.93
579.727	-17.75
579.926	-124.24
580.125	-56.66
580.324	62.12
580.523	0.68
580.722	-25.94
580.921	-15.7
581.12	17.07
581.319	8.87
581.518	-34.13
581.717	39.59
581.916	-46.42
582.115	88.75
582.314	43.69
582.513	-7.51
582.712	58.03
582.911	27.31
583.109	113.32
583.308	4.78
583.507	8.87
583.706	15.02
583.905	-60.76
584.104	62.12
584.302	27.31
584.501	146.09
584.7	-21.85
584.899	-9.56
585.098	10.92
585.296	21.16
585.495	-34.13
585.694	43.69
585.892	-23.89
586.091	-38.23
586.29	-19.8
586.488	55.98
586.687	-1.37
586.886	76.46
587.084	29.35
587.283	21.16
587.482	103.08
587.68	-19.8
587.879	49.83
588.077	19.11
588.276	62.12
588.475	29.35
588.673	70.31
588.872	55.98
589.07	45.74
589.269	25.26
589.467	-13.65
589.666	72.36
589.864	51.88
590.063	-5.46
590.261	-75.09
590.46	121.51
590.658	88.75
590.857	29.35
591.055	27.31
591.253	17.07
591.452	-9.56
591.65	-9.56
591.848	27.31
592.047	12.97
592.245	-27.99
592.444	117.42
592.642	15.02
592.84	74.41
593.038	-19.8
593.237	80.55
593.435	-3.41
593.633	-109.91
593.832	-42.32
594.03	-50.52
594.228	10.92
594.426	-62.8
594.624	8.87
594.823	-3.41
595.021	-64.85
595.219	64.17
595.417	105.13
595.615	-19.8
595.813	15.02
596.012	144.04
596.21	47.79
596.408	62.12
596.606	72.36
596.804	66.22
597.002	-44.37
597.2	-71
597.398	2.73
597.596	127.66
597.794	-5.46
597.992	-25.94
598.19	-9.56
598.388	109.22
598.586	111.27
598.784	53.93
598.982	19.11
599.18	72.36
599.378	-1.37
599.576	-7.51
599.774	-21.85
599.972	78.51
600.17	51.88
600.368	15.02
600.565	29.35
600.763	94.89
600.961	-54.61
601.159	-15.7
601.357	58.03
601.555	4.78
601.752	0.68
601.95	94.89
602.148	-68.95
602.346	39.59
602.544	-7.51
602.741	68.27
602.939	33.45
603.137	37.55
603.334	4.78
603.532	15.02
603.73	58.03
603.927	35.5
604.125	80.55
604.323	-30.04
604.52	-73.04
604.718	53.93
604.916	66.22
605.113	-44.37
605.311	10.92
605.508	62.12
605.706	64.17
605.904	27.31
606.101	90.79
606.299	15.02
606.496	-7.51
606.694	49.83
606.891	-75.09
607.089	-40.28
607.286	-52.56
607.484	90.79
607.681	25.26
607.879	90.79
608.076	62.12
608.273	-62.8
608.471	-3.41
608.668	74.41
608.866	17.07
609.063	41.64
609.26	-40.28
609.458	39.59
609.655	8.87
609.852	2.73
610.05	101.03
610.247	39.59
610.444	94.89
610.642	-81.24
610.839	17.07
611.036	121.51
611.233	-25.94
611.431	115.37
611.628	19.11
611.825	35.5
612.022	8.87
612.22	-30.04
612.417	-79.19
612.614	2.73
612.811	-58.71
613.008	-3.41
613.205	76.46
613.402	6.83
613.6	-58.71
613.797	15.02
613.994	92.84
614.191	35.5
614.388	-19.8
614.585	10.92
614.782	17.07
614.979	8.87
615.176	74.41
615.373	35.5
615.57	27.31
615.767	53.93
615.964	25.26
616.161	6.83
616.358	88.75
616.555	-62.8
616.752	-23.89
616.949	133.8
617.146	31.4
617.343	60.07
617.539	-21.85
617.736	78.51
617.933	8.87
618.13	78.51
618.327	66.22
618.524	-30.04
618.721	49.83
618.917	-19.8
619.114	-3.41
619.311	-15.7
619.508	84.65
619.704	-54.61
619.901	-34.13
620.098	55.98
620.295	68.27
620.491	107.18
620.688	21.16
620.885	148.14
621.081	64.17
621.278	-128.34
621.475	21.16
621.671	66.22
621.868	-56.66
622.065	29.35
622.261	129.7
622.458	68.27
622.655	49.83
622.851	31.4
623.048	39.59
623.244	29.35
623.441	-56.66
623.637	-7.51
623.834	12.97
624.03	33.45
624.227	41.64
624.423	58.03
624.62	23.21
624.816	31.4
625.013	25.26
625.209	10.92
625.406	-7.51
625.602	154.28
625.798	72.36
625.995	-52.56
626.191	-97.62
626.388	21.16
626.584	35.5
626.78	-44.37
626.977	-40.28
627.173	-30.04
627.369	-9.56
627.566	35.5
627.762	58.03
627.958	82.6
628.154	49.83
628.351	86.7
628.547	101.03
628.743	-25.94
628.939	-13.65
629.136	-17.75
629.332	-17.75
629.528	8.87
629.724	23.21
629.92	35.5
630.116	-42.32
630.313	17.07
630.509	82.6
630.705	31.4
630.901	21.16
631.097	-52.56
631.293	94.89
631.489	45.74
631.685	51.88
631.881	-34.13
632.077	43.69
632.273	12.97
632.469	10.92
632.665	45.74
632.861	35.5
633.057	117.42
633.253	-126.29
633.449	39.59
633.645	80.55
633.841	-9.56
634.037	47.79
634.233	76.46
634.429	-38.23
634.625	105.13
634.821	-81.24
635.017	-71
635.212	37.55
635.408	4.78
635.604	17.07
635.8	43.69
635.996	-32.08
636.191	39.59
636.387	88.75
636.583	-19.8
636.779	21.16
636.975	82.6
637.17	-21.85
637.366	-109.91
637.562	-62.8
637.757	92.84
637.953	47.79
638.149	-38.23
638.345	39.59
638.54	-3.41
638.736	-71
638.931	45.74
639.127	-83.28
639.323	90.79
639.518	8.87
639.714	82.6
639.909	17.07
640.105	164.52
640.301	-11.61
640.496	-23.89
640.692	-11.61
640.887	12.97
641.083	-19.8
641.278	-13.65
641.474	19.11
641.669	2.73
641.865	23.21
642.06	-36.18
642.256	62.12
642.451	-105.81
642.646	-5.46
642.842	60.07
643.037	-5.46
643.233	-62.8
643.428	39.59
643.623	33.45
643.819	29.35
644.014	-81.24
644.209	43.69
644.405	39.59
644.6	23.21
644.795	15.02
644.99	33.45
645.186	76.46
645.381	25.26
645.576	70.31
645.771	74.41
645.967	64.17
646.162	-21.85
646.357	74.41
646.552	-11.61
646.747	-34.13
646.943	25.26
647.138	43.69
647.333	12.97
647.528	58.03
647.723	2.73
647.918	15.02
648.113	78.51
648.308	51.88
648.504	-77.14
648.699	111.27
648.894	-50.52
649.089	41.64
649.284	74.41
649.479	-40.28
649.674	78.51
649.869	64.17
650.064	80.55
650.259	-60.76
650.454	23.21
650.649	-5.46
650.844	154.28
651.038	96.94
651.233	-89.43
651.428	-42.32
651.623	51.88
651.818	47.79
652.013	74.41
652.208	12.97
652.403	-122.2
652.597	6.83
652.792	25.26
652.987	60.07
653.182	27.31
653.377	21.16
653.571	-42.32
653.766	-1.37
653.961	23.21
654.156	-38.23
654.35	-103.76
654.545	88.75
654.74	-101.72
654.935	-5.46
655.129	-52.56
655.324	-19.8
655.519	-79.19
655.713	35.5
655.908	70.31
656.102	33.45
656.297	4.78
656.492	25.26
656.686	-9.56
656.881	96.94
657.075	-60.76
657.27	51.88
657.464	92.84
657.659	-13.65
657.854	-5.46
658.048	10.92
658.243	-50.52
658.437	68.27
658.631	-7.51
658.826	-15.7
659.02	-60.76
659.215	-7.51
659.409	64.17
659.604	-19.8
659.798	-21.85
659.992	6.83
660.187	25.26
660.381	80.55
660.576	-11.61
660.77	107.18
660.964	19.11
661.159	55.98
661.353	23.21
661.547	-75.09
661.742	15.02
661.936	72.36
662.13	-38.23
662.324	76.46
662.519	64.17
662.713	10.92
662.907	51.88
663.101	8.87
663.295	-48.47
663.49	-79.19
663.684	-3.41
663.878	33.45
664.072	-60.76
664.266	45.74
664.46	6.83
664.654	-11.61
664.849	-87.38
665.043	12.97
665.237	-71
665.431	35.5
665.625	0.68
665.819	23.21
666.013	8.87
666.207	166.57
666.401	41.64
666.595	33.45
666.789	-52.56
666.983	2.73
667.177	2.73
667.371	6.83
667.565	-1.37
667.759	-81.24
667.953	-68.95
668.147	-40.28
668.34	-48.47
668.534	35.5
668.728	23.21
668.922	19.11
669.116	-21.85
669.31	15.02
669.504	62.12
669.697	27.31
669.891	41.64
670.085	0.68
670.279	-19.8
670.473	15.02
670.666	-64.85
670.86	43.69
671.054	17.07
671.248	12.97
671.441	41.64
671.635	-3.41
671.829	60.07
672.022	53.93
672.216	-77.14
672.41	74.41
672.603	62.12
672.797	172.71
672.99	-19.8
673.184	66.22
673.378	107.18
673.571	-3.41
673.765	12.97
673.958	66.22
674.152	70.31
674.345	2.73
674.539	-83.28
674.733	-17.75
674.926	-9.56
675.12	41.64
675.313	60.07
675.506	21.16
675.7	-13.65
675.893	86.7
676.087	53.93
676.28	64.17
676.474	25.26
676.667	84.65
676.86	60.07
677.054	37.55
677.247	-89.43
677.441	33.45
677.634	-71
677.827	-38.23
678.02	51.88
678.214	47.79
678.407	2.73
678.6	-58.71
678.794	86.7
678.987	45.74
679.18	-30.04
679.373	-1.37
679.567	39.59
679.76	-23.89
679.953	6.83
680.146	-13.65
680.339	-118.1
680.533	-34.13
680.726	-87.38
680.919	-44.37
681.112	29.35
681.305	17.07
681.498	-1.37
681.691	98.99
681.884	29.35
682.077	-109.91
682.271	-5.46
682.464	-9.56
682.657	70.31
682.85	68.27
683.043	-64.85
683.236	41.64
683.429	-7.51
683.622	76.46
683.815	86.7
684.008	-13.65
684.201	-11.61
684.393	109.22
684.586	43.69
684.779	82.6
684.972	-71
685.165	29.35
685.358	66.22
685.551	-44.37
685.744	-13.65
685.937	47.79
686.129	-7.51
686.322	41.64
686.515	-30.04
686.708	-34.13
686.901	55.98
687.093	-27.99
687.286	-71
687.479	-32.08
687.672	127.66
687.864	-93.52
688.057	12.97
688.25	-23.89
688.442	-9.56
688.635	-15.7
688.828	6.83
689.02	25.26
689.213	62.12
689.406	-3.41
689.598	-71
689.791	-30.04
689.984	45.74
690.176	21.16
690.369	12.97
690.561	4.78
690.754	-36.18
690.946	-5.46
691.139	6.83
691.331	172.71
691.524	58.03
691.716	80.55
691.909	27.31
692.101	113.32
692.294	-126.29
692.486	-60.76
692.679	-66.9
692.871	70.31
693.063	-9.56
693.256	45.74
693.448	-34.13
693.641	-46.42
693.833	185
694.025	35.5
694.218	98.99
694.41	-11.61
694.602	72.36
694.795	66.22
694.987	514.72
695.179	8260.14
695.372	15401.41
695.564	9617.94
695.756	6181.45
695.948	2077.32
696.14	428.71
696.333	119.46
696.525	8.87
696.717	10.92
696.909	-17.75
697.101	-38.23
697.294	-40.28
697.486	-15.7
697.678	109.22
697.87	62.12
698.062	-66.9
698.254	2.73
698.446	-11.61
698.638	23.21
698.83	-34.13
699.022	-17.75
699.215	4.78
699.407	111.27
699.599	23.21
699.791	25.26
699.983	6.83
700.175	17.07
700.367	21.16
700.558	23.21
700.75	-36.18
700.942	-17.75
701.134	64.17
701.326	-11.61
701.518	-9.56
701.71	29.35
701.902	-17.75
702.094	94.89
702.286	105.13
702.477	-62.8
702.669	43.69
702.861	-103.76
703.053	19.11
703.245	15.02
703.436	47.79
703.628	-15.7
703.82	-64.85
704.012	-85.33
704.203	47.79
704.395	103.08
704.587	-38.23
704.779	4.78
704.97	-30.04
705.162	813.73
705.354	8217.13
705.545	12018.16
705.737	9407
705.929	4256.36
706.12	2583.17
706.312	473.76
706.503	96.94
706.695	33.45
706.887	125.61
707.078	115.37
707.27	72.36
707.461	-60.76
707.653	84.65
707.844	98.99
708.036	-1.37
708.227	60.07
708.419	74.41
708.61	-7.51
708.802	-132.44
708.993	-75.09
709.185	17.07
709.376	-87.38
709.567	2.73
709.759	-13.65
709.95	43.69
710.141	62.12
710.333	-25.94
710.524	-68.95
710.716	-34.13
710.907	68.27
711.098	-50.52
711.289	8.87
711.481	43.69
711.672	137.9
711.863	-34.13
712.055	39.59
712.246	127.66
712.437	117.42
712.628	-30.04
712.82	76.46
713.011	58.03
713.202	-9.56
713.393	15.02
713.584	92.84
713.775	58.03
713.967	25.26
714.158	121.51
714.349	41.64
714.54	-25.94
714.731	-27.99
714.922	-17.75
715.113	-3.41
715.304	25.26
715.495	-101.72
715.686	12.97
715.877	-19.8
716.068	21.16
716.259	15.02
716.45	-7.51
716.641	-21.85
716.832	-38.23
717.023	39.59
717.214	-13.65
717.405	47.79
717.596	47.79
717.787	-7.51
717.978	68.27
718.169	-50.52
718.36	-15.7
718.55	-60.76
718.741	78.51
718.932	43.69
719.123	-83.28
719.314	6.83
719.505	37.55
719.695	-7.51
719.886	60.07
720.077	-11.61
720.268	-46.42
720.458	86.7
720.649	-21.85
720.84	31.4
721.031	8.87
721.221	10.92
721.412	-46.42
721.603	-56.66
721.793	-15.7
721.984	37.55
722.175	37.55
722.365	-60.76
722.556	-11.61
722.746	-54.61
722.937	-30.04
723.128	62.12
723.318	-19.8
723.509	-5.46
723.699	-40.28
723.89	113.32
724.08	-19.8
724.271	-13.65
724.461	8.87
724.652	-17.75
724.842	-38.23
725.033	4.78
725.223	31.4
725.414	31.4
725.604	-30.04
725.794	72.36
725.985	-13.65
726.175	-21.84
726.366	-1.37
726.556	-36.18
726.746	53.93
726.937	29.35
727.127	6.83
727.317	31.4
727.508	49.83
727.698	10.92
727.888	129.7
728.079	-89.43
728.269	0.68
728.459	8.87
728.649	-25.94
728.84	68.27
729.03	-17.75
729.22	37.55
729.41	49.83
729.6	70.31
729.791	74.41
729.981	17.07
730.171	-17.75
730.361	72.36
730.551	-46.42
730.741	53.93
730.931	-103.76
731.121	113.32
731.311	2.73
731.502	90.79
731.692	31.4
731.882	31.4
732.072	-3.41
732.262	78.51
732.452	-60.76
732.642	-3.41
732.832	-40.28
733.022	70.31
733.212	90.79
733.402	90.79
733.591	49.83
733.781	-46.42
733.971	113.32
734.161	92.84
734.351	-30.04
734.541	12.97
734.731	-38.23
734.921	19.11
735.111	58.03
735.3	74.41
735.49	6.83
735.68	74.41
735.87	-15.7
736.06	60.07
736.249	53.93
736.439	37.55
736.629	70.31
736.819	1028.76
737.008	9222.69
737.198	20562.29
737.388	19845.5
737.577	12329.45
737.767	9083.42
737.957	4487.78
738.146	2419.33
738.336	254.63
738.526	203.43
738.715	129.7
738.905	33.45
739.094	66.22
739.284	17.07
739.474	29.35
739.663	-71
739.853	78.51
740.042	-17.75
740.232	76.46
740.421	62.12
740.611	88.75
740.8	17.07
740.99	41.64
741.179	109.23
741.369	53.93
741.558	17.07
741.748	-85.33
741.937	58.03
742.126	96.94
742.316	41.64
742.505	105.13
742.695	-34.13
742.884	-19.8
743.073	-40.28
743.263	8.87
743.452	-62.8
743.641	51.88
743.831	-62.8
744.02	191.14
744.209	23.21
744.398	60.07
744.588	-17.75
744.777	45.74
744.966	80.55
745.155	64.17
745.345	10.92
745.534	-11.61
745.723	-101.72
745.912	12.97
746.101	21.16
746.29	53.93
746.48	105.13
746.669	33.45
746.858	-52.56
747.047	39.59
747.236	37.55
747.425	62.12
747.614	-46.42
747.803	47.79
747.992	94.89
748.181	84.65
748.37	78.51
748.559	-30.04
748.748	-5.46
748.937	445.09
749.126	6779.46
749.315	12227.06
749.504	13668.83
749.693	10682.89
749.882	10140.18
750.071	12298.74
750.26	18520.46
750.449	20451.7
750.638	19106.18
750.826	11428.35
751.015	9073.18
751.204	4913.76
751.393	2599.56
751.582	365.22
751.771	172.71
751.959	129.7
752.148	17.07
752.337	45.74
752.526	12.97
752.714	45.74
752.903	-23.89
753.092	84.65
753.281	-38.23
753.469	-7.51
753.658	17.07
753.847	-25.94
754.035	19.11
754.224	45.74
754.413	37.55
754.601	-42.32
754.79	2.73
754.979	10.92
755.167	-17.75
755.356	8.87
755.544	-7.51
755.733	35.5
755.921	45.74
756.11	58.03
756.298	37.55
756.487	-25.94
756.675	4.78
756.864	86.7
757.052	-15.7
757.241	72.36
757.429	35.5
757.618	-3.41
757.806	27.31
757.995	17.07
758.183	-27.99
758.371	-56.66
758.56	47.79
758.748	-27.99
758.937	-77.14
759.125	60.07
759.313	-21.85
759.502	-23.89
759.69	-9.56
759.878	17.07
760.066	2.73
760.255	60.07
760.443	76.46
760.631	70.31
760.819	-7.51
761.008	72.36
761.196	80.55
761.384	33.45
761.572	164.52
761.761	201.38
761.949	3781.23
762.137	12018.16
762.325	28762.36
762.513	38469.73
762.701	38897.75
762.889	31131.86
763.077	22313.3
763.266	16431.54
763.454	11907.57
763.642	6318.67
763.83	4088.43
764.018	1579.67
764.206	735.9
764.394	129.7
764.582	47.79
764.77	-1.37
764.958	-34.13
765.146	43.69
765.334	12.97
765.522	-11.61
765.71	-13.65
765.898	127.66
766.085	-32.08
766.273	39.59
766.461	-11.61
766.649	-25.94
766.837	-44.37
767.025	49.83
767.213	60.07
767.401	21.16
767.588	12.97
767.776	51.88
767.964	51.88
768.152	-77.14
768.339	-17.75
768.527	84.65
768.715	15.02
768.903	-75.09
769.09	41.64
769.278	-105.81
769.466	64.17
769.654	-17.75
769.841	0.68
770.029	31.4
770.217	2.73
770.404	139.94
770.592	70.31
770.779	98.99
770.967	98.99
771.155	3408.5
771.342	13935.06
771.53	16576.94
771.717	12212.72
771.905	7998
772.092	4706.91
772.28	1850
772.467	989.85
772.655	-15.7
772.842	111.27
773.03	25.26
773.217	117.42
773.405	-56.66
773.592	72.36
773.78	27.31
773.967	-11.61
774.154	72.36
774.342	-9.56
774.529	25.26
774.717	39.59
774.904	33.45
775.091	58.03
775.279	-58.71
775.466	-1.37
775.653	43.69
775.841	21.16
776.028	137.9
776.215	47.79
776.402	-15.7
776.59	21.16
776.777	-1.37
776.964	10.92
777.151	88.75
777.338	-13.65
777.526	31.4
777.713	31.4
777.9	35.5
778.087	-7.51
778.274	41.64
778.461	-9.56
778.649	4.78
778.836	51.88
779.023	-50.52
779.21	107.18
779.397	-87.38
779.584	37.55
779.771	-5.46
779.958	92.84
780.145	-17.75
780.332	-34.13
780.519	41.64
780.706	127.66
780.893	21.16
781.08	29.35
781.267	64.17
781.454	-101.72
781.641	25.26
781.828	76.46
782.015	41.64
782.202	-62.8
782.388	-60.76
782.575	15.02
782.762	27.31
782.949	37.55
783.136	12.97
783.323	8.87
783.509	76.46
783.696	-30.04
783.883	39.59
784.07	68.27
784.257	-52.56
784.443	-21.85
784.63	92.84
784.817	-34.13
785.004	-44.37
785.19	-3.41
785.377	74.41
785.564	10.92
785.75	2.73
785.937	41.64
786.124	62.12
786.31	17.07
786.497	-50.52
786.683	111.27
786.87	29.35
787.057	35.5
787.243	-56.66
787.43	-52.56
787.616	60.07
787.803	4.78
787.989	10.92
788.176	49.83
788.362	121.51
788.549	41.64
788.735	94.89
788.922	2.73
789.108	-13.65
789.295	-75.09
789.481	25.26
789.668	55.98
789.854	4.78
790.04	58.03
790.227	96.94
790.413	19.11
790.599	-17.75
790.786	19.11
790.972	-11.61
791.158	19.11
791.345	98.99
791.531	15.02
791.717	31.4
791.904	-32.08
792.09	51.88
792.276	21.16
792.462	-15.7
792.649	53.93
792.835	105.13
793.021	-62.8
793.207	-13.65
793.393	6.83
793.58	60.07
793.766	2966.14
793.952	9810.45
794.138	12976.61
794.324	9052.7
794.51	5657.17
794.696	2544.26
794.882	1819.28
795.069	268.97
795.255	51.88
795.441	-1.37
795.627	72.36
795.813	6.83
795.999	109.22
796.185	19.11
796.371	-15.7
796.557	68.27
796.743	58.03
796.929	21.16
797.115	15.02
797.3	-79.19
797.486	-52.56
797.672	2.73
797.858	-11.61
798.044	43.69
798.23	12.97
798.416	0.68
798.602	15.02
798.788	27.31
798.973	21.16
799.159	58.03
799.345	2.73
799.531	17.07
799.717	623.27
799.902	3215.99
800.088	4502.12
800.274	3613.3
800.46	7754.29
800.645	13244.9
800.831	16382.38
801.017	10488.33
801.202	8796.71
801.388	4282.99
801.574	2380.42
801.759	359.08
801.945	215.72
802.131	129.7
802.316	53.93
802.502	-27.99
802.687	86.7
802.873	94.89
803.058	-17.75
803.244	117.42
803.43	70.31
803.615	27.31
803.801	84.65
803.986	-36.18
804.172	-60.76
804.357	17.07
804.543	8.87
804.728	8.87
804.913	-1.37
805.099	98.99
805.284	-21.85
805.47	10.92
805.655	103.08
805.84	82.6
806.026	23.21
806.211	55.98
806.397	92.84
806.582	31.4
806.767	-9.56
806.953	72.36
807.138	10.92
807.323	-15.7
807.508	-54.61
807.694	27.31
807.879	51.88
808.064	137.9
808.249	86.7
808.435	35.5
808.62	49.83
808.805	-36.18
808.99	51.88
809.175	610.98
809.361	4944.48
809.546	12122.61
809.731	21334.37
809.916	21469.54
810.101	18983.31
810.286	19511.68
810.471	24269.11
810.656	29802.72
810.841	37093.49
811.026	41158.71
811.211	38608.99
811.396	32262.33
811.581	26841.36
811.766	20881.77
811.951	16765.35
812.136	11268.61
812.321	8747.56
812.506	5990.99
812.691	3551.86
812.876	1327.77
813.061	653.98
813.246	326.31
813.431	45.74
813.616	12.97
813.801	105.13
813.986	51.88
814.17	117.42
814.355	27.31
814.54	25.26
814.725	127.66
814.91	68.27
815.094	58.03
815.279	-13.65
815.464	94.89
815.649	-11.61
815.833	-46.42
816.018	53.93
816.203	92.84
816.388	49.83
816.572	-1.37
816.757	129.7
816.942	53.93
817.126	72.36
817.311	137.9
817.496	-30.04
817.68	-81.24
817.865	0.68
818.049	53.93
818.234	-19.8
818.419	-32.08
818.603	76.46
818.788	-42.32
818.972	39.59
819.157	23.21
819.341	47.79
819.526	31.4
819.71	-23.89
819.895	15.02
820.079	-101.72
820.264	-46.42
820.448	49.83
820.633	25.26
820.817	86.7
821.001	94.89
821.186	45.74
821.37	-85.33
821.554	0.68
821.739	-58.71
821.923	64.17
822.108	-23.89
822.292	123.56
822.476	-58.71
822.66	23.21
822.845	80.55
823.029	86.7
823.213	111.27
823.398	74.41
823.582	-15.7
823.766	70.31
823.95	-25.94
824.134	4.78
824.319	-27.99
824.503	41.64
824.687	74.41
824.871	53.93
825.055	-27.99
825.239	10.92
825.423	53.93
825.608	98.99
825.792	340.65
825.976	4123.24
826.16	4866.66
826.344	3447.41
826.528	1231.51
826.712	826.01
826.896	-7.51
827.08	33.45
827.264	74.41
827.448	129.7
827.632	72.36
827.816	62.12
828	-71
828.184	62.12
828.368	127.66
828.552	-44.37
828.736	-27.99
828.919	23.21
829.103	33.45
829.287	119.46
829.471	58.03
829.655	68.27
829.839	88.75
830.023	37.55
830.206	64.17
830.39	-23.89
830.574	-50.52
830.758	-27.99
830.941	127.66
831.125	49.83
831.309	49.83
831.493	53.93
831.676	15.02
831.86	-62.8
832.044	31.4
832.227	49.83
832.411	17.07
832.595	92.84
832.778	53.93
832.962	49.83
833.146	111.27
833.329	64.17
833.513	10.92
833.696	-17.75
833.88	55.98
834.064	35.5
834.247	197.29
834.431	-23.89
834.614	64.17
834.798	51.88
834.981	-34.13
835.165	58.03
835.348	-75.09
835.532	80.55
835.715	23.21
835.898	-1.37
836.082	60.07
836.265	162.47
836.449	47.79
836.632	131.75
836.815	41.64
836.999	17.07
837.182	131.75
837.365	-34.13
837.549	45.74
837.732	55.98
837.915	66.22
838.099	17.07
838.282	121.51
838.465	60.07
838.648	-25.94
838.832	-85.33
839.015	33.45
839.198	64.17
839.381	-56.66
839.565	21.16
839.748	131.75
839.931	70.31
840.114	197.29
840.297	3719.79
840.48	9331.23
840.663	13212.13
840.847	10742.28
841.03	9271.84
841.213	6226.51
841.396	5761.62
841.579	4170.35
841.762	5306.97
841.945	7801.4
842.128	13400.54
842.311	16640.43
842.494	14598.6
842.677	10584.59
842.86	8110.64
843.043	5581.4
843.226	3551.86
843.409	989.85
843.592	567.97
843.775	62.12
843.958	-7.51
844.141	41.64
844.323	2.73
844.506	94.89
844.689	156.33
844.872	82.6
845.055	8.87
845.238	-5.46
845.42	39.59
845.603	35.5
845.786	131.75
845.969	39.59
846.152	-71
846.334	35.5
846.517	23.21
846.7	-58.71
846.883	25.26
847.065	47.79
847.248	-42.32
847.431	-13.65
847.613	31.4
847.796	80.55
847.979	-3.41
848.161	115.37
848.344	64.17
848.526	-52.56
848.709	-25.94
848.892	4.78
849.074	-32.08
849.257	12.97
849.439	-27.99
849.622	-3.41
849.804	68.27
849.987	113.32
850.169	27.31
850.352	17.07
850.534	43.69
850.717	92.84
850.899	4.78
851.082	0.68
851.264	4.78
851.446	-15.7
851.629	6.83
851.811	2.73
851.994	191.14
852.176	852.64
852.358	613.03
852.541	4.78
852.723	160.42
852.905	64.17
853.088	78.51
853.27	66.22
853.452	-60.76
853.635	12.97
853.817	21.16
853.999	17.07
854.181	-25.94
854.363	25.26
854.546	-3.41
854.728	-5.46
854.91	47.79
855.092	68.27
855.274	8.87
855.457	74.41
855.639	-60.76
855.821	43.69
856.003	66.22
856.185	-34.13
856.367	27.31
856.549	-44.37
856.731	107.18
856.913	4.78
857.095	49.83
857.277	70.31
857.459	15.02
857.641	29.35
857.823	43.69
858.005	74.41
858.187	58.03
858.369	45.74
858.551	4.78
858.733	29.35
858.915	15.02
859.097	66.22
859.279	98.99
859.461	29.35
859.643	123.56
859.824	33.45
860.006	2.73
860.188	49.83
860.37	88.75
860.552	37.55
860.734	111.27
860.915	0.68
861.097	-46.42
861.279	-73.04
861.461	-54.61
861.642	53.93
861.824	21.16
862.006	72.36
862.188	-25.94
862.369	55.98
862.551	-60.76
862.733	51.88
862.914	-40.28
863.096	62.12
863.278	-3.41
863.459	31.4
863.641	29.35
863.822	47.79
864.004	-52.56
864.185	-40.28
864.367	23.21
864.549	-32.08
864.73	66.22
864.912	66.22
865.093	-87.38
865.275	78.51
865.456	-7.51
865.638	-44.37
865.819	127.66
866.001	35.5
866.182	109.23
866.363	-9.56
866.545	-27.99
866.726	37.55
866.908	37.55
867.089	8.87
867.27	66.22
867.452	-27.99
867.633	8.87
867.814	64.17
867.996	47.79
868.177	-1.37
868.358	31.4
868.54	-89.43
868.721	21.16
868.902	-103.76
869.083	109.22
869.265	21.16
869.446	35.5
869.627	-62.8
869.808	105.13
869.989	64.17
870.171	105.13
870.352	8.87
870.533	-44.37
870.714	45.74
870.895	2.73
871.076	21.16
871.257	27.31
871.438	-52.56
871.619	-42.32
871.801	21.16
871.982	8.87
872.163	-64.85
872.344	21.16
872.525	31.4
872.706	-7.51
872.887	41.64
873.068	39.59
873.249	60.07
873.43	10.92
873.61	-3.41
873.791	-19.8
873.972	92.84
874.153	86.7
874.334	96.94
874.515	23.21
874.696	6.83
874.877	37.55
875.058	-81.24
875.238	0.68
875.419	-46.42
875.6	98.99
875.781	6.83
875.962	15.02
876.142	72.36
876.323	-15.7
876.504	-7.51
876.685	17.07
876.865	-46.42
877.046	0.68
877.227	60.07
877.407	31.4
877.588	41.64
877.769	23.21
877.949	58.03
878.13	23.21
878.311	25.26
878.491	-52.56
878.672	35.5
878.853	-32.08
879.033	35.5
879.214	12.97
879.394	-3.41
879.575	0.68
879.755	37.55
879.936	-64.85
880.116	-9.56
880.297	60.07
880.477	-58.71
880.658	-83.28
880.838	51.88
881.019	115.37
881.199	25.26
881.38	-7.51
881.56	41.64
881.74	17.07
881.921	37.55
882.101	92.84
882.281	86.7
882.462	-58.71
882.642	8.87
882.822	107.18
883.003	17.07
883.183	74.41
883.363	15.02
883.544	47.79
883.724	94.89
883.904	-52.56
884.084	-38.23
884.265	-1.37
884.445	2.73
884.625	72.36
884.805	78.51
884.985	10.92
885.166	90.79
885.346	17.07
885.526	37.55
885.706	-21.85
885.886	60.07
886.066	33.45
886.246	-27.99
886.426	25.26
886.606	-17.75
886.787	-40.28
886.967	-25.94
887.147	-9.56
887.327	29.35
887.507	-13.65
887.687	-124.24
887.867	4.78
888.047	-32.08
888.227	121.51
888.406	47.79
888.586	39.59
888.766	-83.28
888.946	121.51
889.126	-36.18
889.306	43.69
889.486	49.83
889.666	33.45
889.846	-44.37
890.025	4.78
890.205	-75.09
890.385	-19.8
890.565	98.99
890.745	103.08
890.924	101.03
891.104	-68.95
891.284	-3.41
891.464	-21.85
891.643	35.5
891.823	43.69
892.003	129.7
892.183	21.16
892.362	51.88
892.542	58.03
892.722	23.21
892.901	-30.04
893.081	74.41
893.26	-3.41
893.44	49.83
893.62	2.73
893.799	19.11
893.979	92.84
894.158	-23.89
894.338	-44.37
894.517	86.7
894.697	41.64
894.877	55.98
895.056	4.78
895.236	101.03
895.415	47.79
895.594	88.75
895.774	53.93
895.953	2.73
896.133	-71
896.312	115.37
896.492	0.68
896.671	12.97
896.85	21.16
897.03	-3.41
897.209	-52.56
897.388	15.02
897.568	12.97
897.747	45.74
897.926	-9.56
898.106	15.02
898.285	10.92
898.464	-9.56
898.643	66.22
898.823	53.93
899.002	19.11
899.181	-15.7
899.36	-13.65
899.54	119.46
899.719	68.27
899.898	-3.41
900.077	-11.61
900.256	-50.52
900.435	-52.56
900.614	4.78
900.794	-40.28
900.973	58.03
901.152	86.7
901.331	82.6
901.51	6.83
901.689	146.09
901.868	-3.41
902.047	53.93
902.226	68.27
902.405	101.03
902.584	-5.46
902.763	-5.46
902.942	-27.99
903.121	103.08
903.3	53.93
903.479	23.21
903.658	19.11
903.837	15.02
904.015	82.6
904.194	-77.14
904.373	-1.37
904.552	17.07
904.731	15.02
904.91	103.08
905.089	-32.08
905.267	4.78
905.446	-99.67
905.625	6.83
905.804	-54.61
905.982	135.85
906.161	-7.51
906.34	-11.61
906.519	88.75
906.697	-5.46
906.876	21.16
907.055	-25.94
907.233	-62.8
907.412	92.84
907.591	45.74
907.769	-15.7
907.948	33.45
908.127	43.69
908.305	15.02
908.484	-15.7
908.662	6.83
908.841	-36.18
909.019	15.02
909.198	58.03
909.377	-85.33
909.555	15.02
909.734	53.93
909.912	12.97
910.09	15.02
910.269	103.08
910.447	96.94
910.626	-13.65
910.804	-17.75
910.983	-17.75
911.161	35.5
911.339	43.69
911.518	-13.65
911.696	146.09
911.875	55.98
912.053	-11.61
912.231	58.03
912.41	0.68
912.588	-58.71
912.766	45.74
912.944	-13.65
913.123	-15.7
913.301	96.94
913.479	342.69
913.657	406.18
913.836	49.83
914.014	2.73
914.192	-68.95
914.37	84.65
914.548	31.4
914.727	90.79
914.905	15.02
915.083	23.21
915.261	12.97
915.439	105.13
915.617	-46.42
915.795	2.73
915.973	21.16
916.151	-3.41
916.329	29.35
916.508	90.79
916.686	135.85
916.864	-52.56
917.042	105.13
917.22	58.03
917.398	-46.42
917.575	-68.95
917.753	53.93
917.931	15.02
918.109	-95.57
918.287	-62.8
918.465	21.16
918.643	-56.66
918.821	47.79
918.999	-36.18
919.177	-17.75
919.354	-62.8
919.532	37.55
919.71	-62.8
919.888	-5.46
920.066	0.68
920.243	64.17
920.421	107.18
920.599	-60.76
920.777	-7.51
920.954	84.65
921.132	-27.99
921.31	62.12
921.488	-15.7
921.665	43.69
921.843	29.35
922.021	17.07
922.198	146.09
922.376	-50.52
922.553	17.07
922.731	2.73
922.909	-50.52
923.086	10.92
923.264	-13.65
923.441	-101.72
923.619	96.94
923.796	29.35
923.974	-1.37
924.152	8.87
924.329	33.45
924.507	-11.61
924.684	-54.61
924.861	21.16
925.039	25.26
925.216	25.26
925.394	10.92
925.571	41.64
925.749	29.35
925.926	84.65
926.103	109.22
926.281	27.31
926.458	-42.32
926.635	45.74
926.813	-50.52
926.99	60.07
927.167	-32.08
927.345	17.07
927.522	84.65
927.699	37.55
927.876	-44.37
928.054	55.98
928.231	-50.52
928.408	-46.42
928.585	82.6
928.763	51.88
928.94	-66.9
929.117	-21.85
929.294	4.78
929.471	-25.94
929.648	66.22
929.825	15.02
930.003	53.93
930.18	15.02
930.357	51.88
930.534	-32.08
930.711	-1.37
930.888	-3.41
931.065	-3.41
931.242	41.64
931.419	12.97
931.596	150.18
931.773	51.88
931.95	-21.85
932.127	139.94
932.304	84.65
932.481	2.73
932.658	-46.42
932.835	-21.85
933.011	31.4
933.188	-19.8
933.365	-7.51
933.542	-21.85
933.719	68.27
933.896	-50.52
934.073	-15.7
934.249	-13.65
934.426	101.03
934.603	58.03
934.78	-7.51
934.957	-11.61
935.133	25.26
935.31	-17.75
935.487	21.16
935.664	21.16
935.84	111.27
936.017	-46.42
936.194	-13.65
936.37	-3.41
936.547	-73.04
936.724	31.4
936.9	49.83
937.077	-60.76
937.253	55.98
937.43	-73.04
937.607	25.26
937.783	12.97
937.96	-15.7
938.136	-64.85
938.313	-93.52
938.489	-21.85
938.666	31.4
938.842	15.02
939.019	98.99
939.195	35.5
939.372	90.79
939.548	17.07
939.725	-13.65
939.901	-11.61
940.077	-99.67
940.254	-95.57
940.43	58.03
940.607	31.4
940.783	31.4
940.959	-40.28
941.136	0.68
941.312	-23.89
941.488	-17.75
941.665	-15.7
941.841	4.78
942.017	37.55
942.193	72.36
942.37	-19.8
942.546	-27.99
942.722	82.6
942.898	88.75
943.074	0.68
943.251	35.5
943.427	-11.61
943.603	-27.99
943.779	-25.94
943.955	-17.75
944.131	43.69
944.308	45.74
944.484	-36.18
944.66	64.17
944.836	21.16
945.012	-36.18
945.188	-81.24
945.364	-11.61
945.54	80.55
945.716	39.59
945.892	-15.7
946.068	-13.65
946.244	-19.8
946.42	98.99
946.596	90.79
946.772	78.51
946.948	-124.24
947.124	-73.04
947.3	58.03
947.475	23.21
947.651	41.64
947.827	25.26
948.003	111.27
948.179	78.51
948.355	-50.52
948.531	66.22
948.706	64.17
948.882	-27.99
949.058	-23.89
949.234	-9.56
949.409	-42.32
949.585	-87.38
949.761	55.98
949.937	-1.37
950.112	-64.85
950.288	86.7
950.464	-54.61
950.639	43.69
950.815	-27.99
950.991	60.07
951.166	37.55
951.342	-19.8
951.518	-81.24
951.693	45.74
951.869	-52.56
952.044	-9.56
952.22	88.75
952.395	-3.41
952.571	35.5
952.747	101.03
952.922	49.83
953.098	12.97
953.273	39.59
953.448	33.45
953.624	-7.51
953.799	27.31
953.975	-32.08
954.15	141.99
954.326	-52.56
954.501	66.22
954.676	37.55
954.852	23.21
955.027	29.35
955.203	-71
955.378	-1.37
955.553	39.59
955.729	70.31
955.904	109.22
956.079	86.7
956.254	19.11
956.43	31.4
956.605	25.26
956.78	88.75
956.955	53.93
957.131	-56.66
957.306	-103.76
957.481	101.03
957.656	33.45
957.831	8.87
958.007	111.27
958.182	64.17
958.357	101.03
958.532	35.5
958.707	0.68
958.882	66.22
959.057	8.87
959.232	-7.51
959.407	86.7
959.582	25.26
959.757	12.97
959.932	88.75
960.107	19.11
960.282	64.17
960.457	21.16
960.632	-38.23
960.807	39.59
960.982	-19.8
961.157	-7.51
961.332	45.74
961.507	115.37
961.682	33.45
961.857	-19.8
962.032	90.79
962.206	-25.94
962.381	-56.66
962.556	109.23
962.731	2.73
962.906	0.68
963.081	8.87
963.255	33.45
963.43	-3.41
963.605	131.75
963.78	-36.18
963.954	21.16
964.129	76.46
964.304	-62.8
964.479	-23.89
964.653	103.08
964.828	45.74
965.003	-75.09
965.177	-52.56
965.352	51.88
965.526	31.4
965.701	82.6
965.876	-40.28
966.05	-3.41
966.225	62.12
966.399	74.41
966.574	12.97
966.748	94.89
966.923	-27.99
967.098	-5.46
967.272	25.26
967.446	-9.56
967.621	-42.32
967.795	115.37
967.97	-9.56
968.144	27.31
968.319	-1.37
968.493	58.03
968.668	119.46
968.842	-83.28
969.016	-1.37
969.191	92.84
969.365	-46.42
969.539	51.88
969.714	37.55
969.888	43.69
970.062	15.02
970.237	68.27
970.411	-81.24
970.585	53.93
970.759	-124.24
970.934	-44.37
971.108	-87.38
971.282	-1.37
971.456	49.83
971.63	43.69
971.805	39.59
971.979	84.65
972.153	-103.76
972.327	0.68
972.501	-3.41
972.675	109.22
972.849	31.4
973.024	31.4
973.198	88.75
973.372	45.74
973.546	-30.04
973.72	-58.71
973.894	2.73
974.068	10.92
974.242	6.83
974.416	-27.99
974.59	127.66
974.764	88.75
974.938	-5.46
975.112	-21.85
975.286	-32.08
975.46	76.46
975.633	8.87
975.807	-3.41
975.981	-99.67
976.155	62.12
976.329	41.64
976.503	-107.86
976.677	-23.89
976.85	-19.8
977.024	31.4
977.198	21.16
977.372	-60.76
977.546	17.07
977.719	43.69
977.893	17.07
978.067	-68.95
978.241	35.5
978.414	37.55
978.588	-58.71
978.762	27.31
978.935	80.55
979.109	-3.41
979.283	-25.94
979.456	78.51
979.63	-48.47
979.804	60.07
979.977	39.59
980.151	51.88
980.324	-52.56
980.498	29.35
980.671	-19.8
980.845	39.59
981.018	-68.95
981.192	119.46
981.365	29.35
981.539	31.4
981.712	103.08
981.886	80.55
982.059	-30.04
982.233	47.79
982.406	33.45
982.58	23.21
982.753	0.68
982.926	41.64
983.1	-32.08
983.273	-34.13
983.446	10.92
983.62	25.26
983.793	-46.42
983.966	-52.56
984.14	62.12
984.313	74.41
984.486	4.78
984.66	-9.56
984.833	-38.23
985.006	2.73
985.179	-34.13
985.352	55.98
985.526	-7.51
985.699	-97.62
985.872	35.5
986.045	62.12
986.218	6.83
986.391	2.73
986.565	55.98
986.738	19.11
986.911	8.87
987.084	-54.61
987.257	123.56
987.43	-7.51
987.603	31.4
987.776	-21.85
987.949	23.21
988.122	29.35
988.295	-13.65
988.468	41.64
988.641	-5.46
988.814	-73.04
988.987	27.31
989.16	-56.66
989.333	-3.41
989.506	-9.56
989.679	-36.18
989.852	76.46
990.025	107.18
990.197	49.83
990.37	-3.41
990.543	31.4
990.716	76.46
990.889	27.31
991.062	-7.51
991.234	-42.32
991.407	23.21
991.58	6.83
991.753	55.98
991.925	68.27
992.098	53.93
992.271	4.78
992.444	-71
992.616	23.21
992.789	115.37
992.962	-56.66
993.134	23.21
993.307	-23.89
993.479	105.13
993.652	-48.47
993.825	60.07
993.997	-46.42
994.17	127.66
994.342	-32.08
994.515	-36.18
994.688	31.4
994.86	23.21
995.033	23.21
995.205	92.84
995.378	-13.65
995.55	-52.56
995.723	76.46
995.895	8.87
996.067	17.07
996.24	29.35
996.412	27.31
996.585	-23.89
996.757	15.02
996.929	19.11
997.102	-1.37
997.274	17.07
997.447	-17.75
997.619	35.5
997.791	82.6
997.964	29.35
998.136	-3.41
998.308	33.45
998.48	-46.42
998.653	-19.8
998.825	-7.51
998.997	17.07
999.169	72.36
999.342	-42.32
999.514	-46.42
999.686	-134.48
999.858	-7.51
1000.03	90.79
1000.202	-73.04
1000.374	66.22
1000.547	80.55
1000.719	-11.61
1000.891	31.4
1001.063	27.31
1001.235	31.4
1001.407	27.31
1001.579	-3.41
1001.751	80.55
1001.923	35.5
1002.095	43.69
1002.267	6.83
1002.439	131.75
1002.611	-64.85
1002.783	96.94
1002.955	-30.04
1003.127	180.9
1003.299	90.79
1003.471	21.16
1003.643	74.41
1003.815	-27.99
1003.986	4.78
1004.158	-30.04
1004.33	-25.94
1004.502	60.07
1004.674	-15.7
1004.846	17.07
1005.017	76.46
1005.189	-62.8
1005.361	-44.37
1005.533	113.32
1005.704	45.74
1005.876	-9.56
1006.048	-68.95
1006.22	-66.9
1006.391	58.03
1006.563	29.35
1006.735	-54.61
1006.906	96.94
1007.078	35.5
1007.25	29.35
1007.421	33.45
1007.593	-5.46
1007.764	41.64
1007.936	43.69
1008.108	37.55
1008.279	-1.37
1008.451	6.83
1008.622	64.17
1008.794	-9.56
1008.965	-7.51
1009.137	-48.47
1009.308	-68.95
1009.48	92.84
1009.651	51.88
1009.823	23.21
1009.994	62.12
1010.165	-30.04
1010.337	-40.28
1010.508	94.89
1010.68	12.97
1010.851	127.66
1011.022	-7.51
1011.194	23.21
1011.365	-40.28
1011.536	6.83
1011.708	-1.37
1011.879	-9.56
1012.05	84.65
1012.222	-9.56
1012.393	35.5
1012.564	12.97
1012.735	55.98
1012.906	-11.61
1013.078	76.46
1013.249	-7.51
1013.42	37.55
1013.591	86.7
1013.762	-54.61
1013.934	43.69
1014.105	-40.28
1014.276	8.87
1014.447	-36.18
1014.618	-7.51
1014.789	105.13
1014.96	-27.99
1015.131	25.26
1015.302	10.92
1015.473	19.11
1015.644	37.55
1015.815	19.11
1015.986	-34.13
1016.157	33.45
1016.328	-21.85
1016.499	4.78
1016.67	-9.56
1016.841	47.79
1017.012	-54.61
1017.183	80.55
1017.354	-21.85
1017.525	-58.71
1017.696	37.55
1017.867	-19.8
1018.037	-87.38
1018.208	21.16
1018.379	-75.09
1018.55	55.98
1018.721	80.55
1018.891	-17.75
1019.062	6.83
1019.233	31.4
1019.404	84.65
1019.574	-60.76
1019.745	121.51
1019.916	8.87
1020.087	121.51
1020.257	-52.56
1020.428	-11.61
1020.599	172.71
1020.769	-19.8
1020.94	-13.65
1021.11	27.31
1021.281	78.51
1021.452	33.45
1021.622	17.07
1021.793	41.64
1021.963	25.26
1022.134	27.31
1022.305	12.97
1022.475	-40.28
1022.646	45.74
1022.816	94.89
1022.987	27.31
1023.157	-15.7
1023.327	92.84
1023.498	94.89
1023.668	45.74
1023.839	-79.19
1024.009	53.93
1024.18	-7.51
1024.35	119.46
1024.52	-25.94
1024.691	96.94
1024.861	39.59
1025.031	-7.51
1025.202	17.07
1025.372	0.68
1025.542	-1.37
1025.713	-85.33
1025.883	-17.75
1026.053	139.94
1026.223	-48.47
1026.394	-68.95
1026.564	-107.86
1026.734	-54.61
1026.904	137.9
1027.074	-54.61
1027.245	4.78
1027.415	-1.37
1027.585	-32.08
1027.755	-1.37
1027.925	29.35
1028.095	58.03
1028.265	-23.89
1028.435	-44.37
1028.606	94.89
1028.776	12.97
1028.946	-30.04
1029.116	82.6
1029.286	-56.66
1029.456	-42.32
1029.626	55.98
1029.796	82.6
1029.966	19.11
1030.136	146.09
1030.306	-23.89
1030.475	43.69
1030.645	103.08
1030.815	31.4
1030.985	58.03
1031.155	-17.75
1031.325	-103.76
1031.495	17.07
1031.665	-21.85
1031.835	-13.65
1032.004	39.59
1032.174	-140.63
1032.344	88.75
1032.514	53.93
1032.684	-11.61
1032.853	-36.18
1033.023	37.55
1033.193	-46.42
1033.362	-11.61
1033.532	2.73
1033.702	35.5
1033.872	12.97
1034.041	10.92
1034.211	31.4
1034.381	72.36
1034.55	25.26
1034.72	-54.61
1034.889	33.45
1035.059	-19.8
1035.229	17.07
1035.398	41.64
1035.568	49.83
1035.737	31.4
1035.907	92.84
1036.076	6.83
1036.246	-5.46
1036.415	72.36
1036.585	8.87
1036.754	4.78
1036.924	4.78
1037.093	60.07
1037.263	39.59
1037.432	19.11
1037.601	27.31
1037.771	45.74
1037.94	60.07
1038.11	115.37
1038.279	80.55
1038.448	-17.75
1038.618	-30.04
1038.787	29.35
1038.956	-68.95
1039.126	-5.46
1039.295	47.79
1039.464	-13.65
1039.633	70.31
1039.803	-13.65
1039.972	39.59
1040.141	33.45
1040.31	-15.7
1040.479	35.5
1040.649	-34.13
1040.818	111.27
1040.987	-46.42
1041.156	8.87
1041.325	35.5
1041.494	8.87
1041.663	21.16
1041.833	-13.65
1042.002	90.79
1042.171	66.22
1042.34	76.46
1042.509	23.21
1042.678	-48.47
