Data from LSP85_F7_Subt2_15-33-31-402.txt Node
Date: Tue Aug 22 15:33:31 EDT 2023
User: Emmanuel
Spectrometer: USB4A00615
Scans to average: 1
Trigger mode: 1
Integration Time (sec): 5.000000E-3
Electric dark correction enabled: true
Boxcar width: 0
XAxis mode: Wavelengths
Number of Pixels in Spectrum: 3648
>>>>>Begin Spectral Data<<<<<
346.606	27.65
346.818	27.65
347.029	27.65
347.241	68.61
347.452	5.12
347.664	-44.03
347.876	-23.55
348.087	-99.33
348.299	-5.12
348.51	35.84
348.722	-1.02
348.933	1.02
349.145	82.94
349.356	-5.12
349.568	1.02
349.779	56.32
349.991	1.02
350.202	-123.9
350.414	-5.12
350.625	-50.18
350.836	68.61
351.048	52.22
351.259	117.76
351.471	-31.74
351.682	-19.46
351.893	-19.46
352.105	-13.31
352.316	-23.55
352.527	68.61
352.739	-23.55
352.95	35.84
353.161	44.03
353.372	13.31
353.584	-74.75
353.795	-5.12
354.006	93.18
354.217	93.18
354.429	-97.28
354.64	111.61
354.851	25.6
355.062	15.36
355.274	130.05
355.485	125.95
355.696	-56.32
355.907	-7.17
356.118	68.61
356.329	-62.46
356.54	-27.65
356.752	29.7
356.963	-21.5
357.174	27.65
357.385	-5.12
357.596	113.66
357.807	50.18
358.018	62.46
358.229	68.61
358.44	-76.8
358.651	58.37
358.862	58.37
359.073	58.37
359.284	3.07
359.495	5.12
359.706	23.55
359.917	105.47
360.128	52.22
360.339	3.07
360.55	-11.26
360.761	-5.12
360.972	15.36
361.182	27.65
361.393	37.89
361.604	84.99
361.815	-19.46
362.026	-119.81
362.237	-58.37
362.447	105.47
362.658	-11.26
362.869	-29.7
363.08	35.84
363.291	-82.94
363.501	-56.32
363.712	117.76
363.923	7.17
364.134	76.8
364.344	154.62
364.555	60.42
364.766	64.51
364.976	19.46
365.187	-121.85
365.398	-37.89
365.608	-37.89
365.819	19.46
366.03	41.98
366.24	-9.22
366.451	68.61
366.662	-9.22
366.872	-103.42
367.083	37.89
367.293	-13.31
367.504	23.55
367.714	-1.02
367.925	74.75
368.135	31.74
368.346	70.65
368.557	31.74
368.767	-23.55
368.977	82.94
369.188	7.17
369.398	-25.6
369.609	70.65
369.819	3.07
370.03	39.94
370.24	-35.84
370.451	130.05
370.661	50.18
370.871	-41.98
371.082	-1.02
371.292	80.89
371.502	31.74
371.713	39.94
371.923	111.61
372.133	50.18
372.344	-11.26
372.554	21.5
372.764	7.17
372.975	-25.6
373.185	-103.42
373.395	-27.65
373.605	-5.12
373.816	1.02
374.026	-15.36
374.236	-17.41
374.446	27.65
374.656	52.22
374.867	-62.46
375.077	33.79
375.287	13.31
375.497	9.22
375.707	56.32
375.917	-82.94
376.127	58.37
376.338	74.75
376.548	-29.7
376.758	9.22
376.968	-13.31
377.178	-27.65
377.388	-31.74
377.598	44.03
377.808	-7.17
378.018	21.5
378.228	-91.13
378.438	25.6
378.648	-121.85
378.858	103.42
379.068	-11.26
379.278	-13.31
379.488	103.42
379.698	-66.56
379.908	72.7
380.118	-33.79
380.327	66.56
380.537	23.55
380.747	134.14
380.957	-72.7
381.167	-37.89
381.377	33.79
381.587	181.25
381.796	76.8
382.006	87.04
382.216	74.75
382.426	46.08
382.636	-21.5
382.845	-17.41
383.055	-37.89
383.265	68.61
383.475	29.7
383.684	3.07
383.894	44.03
384.104	33.79
384.313	-5.12
384.523	-7.17
384.733	87.04
384.942	70.65
385.152	-35.84
385.362	78.85
385.571	-1.02
385.781	107.52
385.991	-33.79
386.2	62.46
386.41	72.7
386.619	-25.6
386.829	50.18
387.038	-44.03
387.248	37.89
387.457	-46.08
387.667	95.23
387.876	35.84
388.086	15.36
388.295	35.84
388.505	156.67
388.714	29.7
388.924	-17.41
389.133	37.89
389.343	21.5
389.552	35.84
389.762	80.89
389.971	23.55
390.18	35.84
390.39	-31.74
390.599	37.89
390.808	62.46
391.018	70.65
391.227	29.7
391.436	11.26
391.646	66.56
391.855	84.99
392.064	9.22
392.274	17.41
392.483	87.04
392.692	29.7
392.901	-23.55
393.111	-95.23
393.32	44.03
393.529	23.55
393.738	-33.79
393.947	-29.7
394.157	111.61
394.366	-25.6
394.575	-37.89
394.784	5.12
394.993	25.6
395.202	44.03
395.411	13.31
395.62	68.61
395.83	27.65
396.039	-48.13
396.248	-119.81
396.457	-25.6
396.666	-31.74
396.875	11.26
397.084	33.79
397.293	-39.94
397.502	72.7
397.711	60.42
397.92	103.42
398.129	-50.18
398.338	-44.03
398.547	21.5
398.756	58.37
398.965	41.98
399.174	27.65
399.382	41.98
399.591	107.52
399.8	56.32
400.009	27.65
400.218	101.37
400.427	-15.36
400.636	68.61
400.844	35.84
401.053	-15.36
401.262	5.12
401.471	-1.02
401.68	23.55
401.888	39.94
402.097	-13.31
402.306	103.42
402.515	121.85
402.723	99.33
402.932	-31.74
403.141	13.31
403.35	44.03
403.558	-3.07
403.767	175.1
403.976	-60.42
404.184	121.85
404.393	132.09
404.602	66.56
404.81	-78.85
405.019	-48.13
405.227	-15.36
405.436	33.79
405.645	35.84
405.853	78.85
406.062	80.89
406.27	33.79
406.479	37.89
406.687	-31.74
406.896	-19.46
407.104	29.7
407.313	3.07
407.521	-25.6
407.73	33.79
407.938	-9.22
408.147	-13.31
408.355	58.37
408.563	7.17
408.772	-29.7
408.98	-25.6
409.189	128
409.397	-66.56
409.605	50.18
409.814	70.65
410.022	39.94
410.23	11.26
410.439	70.65
410.647	-50.18
410.855	-37.89
411.064	-93.18
411.272	29.7
411.48	54.27
411.688	-29.7
411.897	162.81
412.105	84.99
412.313	-9.22
412.521	-23.55
412.73	-13.31
412.938	-35.84
413.146	9.22
413.354	-109.57
413.562	-50.18
413.77	21.5
413.979	-46.08
414.187	-5.12
414.395	52.22
414.603	-1.02
414.811	54.27
415.019	-21.5
415.227	93.18
415.435	64.51
415.643	-39.94
415.851	-33.79
416.059	68.61
416.267	-93.18
416.475	39.94
416.683	19.46
416.891	72.7
417.099	17.41
417.307	68.61
417.515	-1.02
417.723	74.75
417.931	-17.41
418.139	9.22
418.347	-5.12
418.555	-60.42
418.763	84.99
418.971	-46.08
419.179	-146.43
419.386	125.95
419.594	-9.22
419.802	68.61
420.01	9.22
420.218	44.03
420.426	-41.98
420.633	66.56
420.841	60.42
421.049	-7.17
421.257	105.47
421.464	62.46
421.672	142.33
421.88	-48.13
422.088	82.94
422.295	23.55
422.503	87.04
422.711	27.65
422.918	7.17
423.126	68.61
423.334	-17.41
423.541	89.09
423.749	-35.84
423.956	60.42
424.164	-9.22
424.372	95.23
424.579	29.7
424.787	66.56
424.994	-25.6
425.202	52.22
425.409	48.13
425.617	-52.22
425.824	41.98
426.032	68.61
426.239	-78.85
426.447	33.79
426.654	29.7
426.862	58.37
427.069	-33.79
427.277	62.46
427.484	-1.02
427.692	89.09
427.899	76.8
428.106	-1.02
428.314	-119.81
428.521	-11.26
428.728	132.09
428.936	41.98
429.143	132.09
429.351	1.02
429.558	15.36
429.765	52.22
429.972	25.6
430.18	-41.98
430.387	-1.02
430.594	-9.22
430.801	17.41
431.009	-29.7
431.216	-23.55
431.423	-39.94
431.63	-56.32
431.838	52.22
432.045	72.7
432.252	138.24
432.459	-7.17
432.666	19.46
432.873	31.74
433.081	-23.55
433.288	37.89
433.495	144.38
433.702	41.98
433.909	91.13
434.116	91.13
434.323	50.18
434.53	82.94
434.737	52.22
434.944	-5.12
435.151	64.51
435.358	31.74
435.565	119.81
435.772	93.18
435.979	52.22
436.186	89.09
436.393	-41.98
436.6	78.85
436.807	-46.08
437.014	23.55
437.221	95.23
437.428	-3.07
437.635	17.41
437.841	48.13
438.048	-41.98
438.255	-44.03
438.462	74.75
438.669	-11.26
438.876	52.22
439.082	7.17
439.289	37.89
439.496	72.7
439.703	9.22
439.91	-60.42
440.116	76.8
440.323	50.18
440.53	78.85
440.737	27.65
440.943	17.41
441.15	7.17
441.357	109.57
441.563	-37.89
441.77	19.46
441.977	62.46
442.183	68.61
442.39	48.13
442.597	-56.32
442.803	121.85
443.01	-3.07
443.216	23.55
443.423	23.55
443.63	21.5
443.836	7.17
444.043	138.24
444.249	-1.02
444.456	-13.31
444.662	74.75
444.869	54.27
445.075	17.41
445.282	15.36
445.488	25.6
445.695	33.79
445.901	-54.27
446.107	-11.26
446.314	7.17
446.52	72.7
446.727	152.57
446.933	48.13
447.139	54.27
447.346	33.79
447.552	-39.94
447.759	31.74
447.965	-9.22
448.171	-3.07
448.378	125.95
448.584	-70.65
448.79	37.89
448.996	56.32
449.203	-9.22
449.409	-7.17
449.615	48.13
449.821	31.74
450.028	58.37
450.234	-31.74
450.44	29.7
450.646	27.65
450.852	-35.84
451.059	74.75
451.265	9.22
451.471	-13.31
451.677	-31.74
451.883	21.5
452.089	201.72
452.295	84.99
452.502	50.18
452.708	19.46
452.914	125.95
453.12	25.6
453.326	60.42
453.532	-15.36
453.738	11.26
453.944	97.28
454.15	33.79
454.356	-31.74
454.562	-5.12
454.768	111.61
454.974	19.46
455.18	-31.74
455.386	-5.12
455.592	-72.7
455.798	21.5
456.003	48.13
456.209	13.31
456.415	-5.12
456.621	197.63
456.827	-23.55
457.033	41.98
457.239	103.42
457.444	95.23
457.65	68.61
457.856	5.12
458.062	84.99
458.268	-21.5
458.473	66.56
458.679	166.91
458.885	144.38
459.091	-62.46
459.296	-80.89
459.502	99.33
459.708	-37.89
459.914	87.04
460.119	109.57
460.325	44.03
460.531	19.46
460.736	56.32
460.942	-91.13
461.147	111.61
461.353	80.89
461.559	-66.56
461.764	13.31
461.97	9.22
462.175	9.22
462.381	87.04
462.587	78.85
462.792	64.51
462.998	-33.79
463.203	41.98
463.409	-13.31
463.614	1.02
463.82	33.79
464.025	62.46
464.231	-3.07
464.436	21.5
464.641	-121.85
464.847	82.94
465.052	84.99
465.258	54.27
465.463	54.27
465.669	9.22
465.874	13.31
466.079	160.77
466.285	68.61
466.49	39.94
466.695	25.6
466.901	54.27
467.106	-7.17
467.311	13.31
467.516	-1.02
467.722	31.74
467.927	-41.98
468.132	64.51
468.338	74.75
468.543	58.37
468.748	5.12
468.953	101.37
469.158	52.22
469.364	1.02
469.569	-29.7
469.774	50.18
469.979	66.56
470.184	60.42
470.389	103.42
470.594	1.02
470.8	95.23
471.005	19.46
471.21	-15.36
471.415	62.46
471.62	31.74
471.825	46.08
472.03	19.46
472.235	33.79
472.44	-7.17
472.645	62.46
472.85	-93.18
473.055	-17.41
473.26	48.13
473.465	64.51
473.67	11.26
473.875	117.76
474.08	121.85
474.285	82.94
474.49	-91.13
474.695	66.56
474.899	-9.22
475.104	37.89
475.309	17.41
475.514	5.12
475.719	-27.65
475.924	27.65
476.128	25.6
476.333	93.18
476.538	-72.7
476.743	13.31
476.948	-64.51
477.152	29.7
477.357	58.37
477.562	17.41
477.767	-9.22
477.971	50.18
478.176	150.53
478.381	93.18
478.585	54.27
478.79	15.36
478.995	97.28
479.199	39.94
479.404	1.02
479.609	89.09
479.813	-17.41
480.018	78.85
480.223	97.28
480.427	54.27
480.632	33.79
480.836	70.65
481.041	134.14
481.245	148.48
481.45	-17.41
481.654	-7.17
481.859	-13.31
482.063	-11.26
482.268	203.77
482.472	-17.41
482.677	91.13
482.881	101.37
483.086	25.6
483.29	-3.07
483.495	-17.41
483.699	113.66
483.903	154.62
484.108	84.99
484.312	-46.08
484.517	103.42
484.721	27.65
484.925	78.85
485.13	-7.17
485.334	50.18
485.538	130.05
485.743	35.84
485.947	123.9
486.151	164.86
486.355	-46.08
486.56	-3.07
486.764	21.5
486.968	95.23
487.172	-33.79
487.377	125.95
487.581	216.06
487.785	25.6
487.989	128
488.193	82.94
488.397	74.75
488.602	107.52
488.806	140.29
489.01	68.61
489.214	37.89
489.418	158.72
489.622	130.05
489.826	62.46
490.03	44.03
490.234	119.81
490.438	5.12
490.642	82.94
490.846	84.99
491.05	39.94
491.254	17.41
491.458	-25.6
491.662	244.73
491.866	-17.41
492.07	56.32
492.274	82.94
492.478	54.27
492.682	95.23
492.886	23.55
493.09	37.89
493.294	48.13
493.498	7.17
493.701	48.13
493.905	84.99
494.109	115.71
494.313	111.61
494.517	150.53
494.721	15.36
494.924	91.13
495.128	17.41
495.332	29.7
495.536	105.47
495.739	27.65
495.943	84.99
496.147	84.99
496.351	-31.74
496.554	175.1
496.758	56.32
496.962	33.79
497.165	-11.26
497.369	41.98
497.573	95.23
497.776	130.05
497.98	101.37
498.184	185.34
498.387	109.57
498.591	56.32
498.794	107.52
498.998	154.62
499.202	76.8
499.405	134.14
499.609	21.5
499.812	64.51
500.016	91.13
500.219	78.85
500.423	9.22
500.626	263.16
500.83	113.66
501.033	148.48
501.237	119.81
501.44	297.98
501.643	232.44
501.847	224.25
502.05	115.71
502.254	107.52
502.457	142.33
502.66	68.61
502.864	-13.31
503.067	134.14
503.271	3.07
503.474	87.04
503.677	-7.17
503.88	130.05
504.084	-23.55
504.287	-82.94
504.49	60.42
504.694	105.47
504.897	62.46
505.1	95.23
505.303	164.86
505.507	805.88
505.71	181.25
505.913	220.16
506.116	80.89
506.319	128
506.522	113.66
506.726	138.24
506.929	146.43
507.132	680.95
507.335	283.64
507.538	136.19
507.741	125.95
507.944	146.43
508.147	64.51
508.35	113.66
508.553	115.71
508.756	-23.55
508.959	152.57
509.163	76.8
509.366	31.74
509.569	111.61
509.771	-35.84
509.974	-15.36
510.177	54.27
510.38	17.41
510.583	21.5
510.786	136.19
510.989	91.13
511.192	142.33
511.395	-5.12
511.598	-70.65
511.801	15.36
512.004	25.6
512.206	9.22
512.409	119.81
512.612	50.18
512.815	97.28
513.018	107.52
513.22	130.05
513.423	68.61
513.626	58.37
513.829	82.94
514.032	72.7
514.234	-13.31
514.437	107.52
514.64	54.27
514.842	72.7
515.045	140.29
515.248	68.61
515.45	113.66
515.653	89.09
515.856	76.8
516.058	152.57
516.261	39.94
516.464	-15.36
516.666	-9.22
516.869	3.07
517.071	119.81
517.274	58.37
517.477	35.84
517.679	39.94
517.882	-21.5
518.084	89.09
518.287	31.74
518.489	58.37
518.692	216.06
518.894	179.2
519.097	140.29
519.299	46.08
519.501	62.46
519.704	66.56
519.906	109.57
520.109	138.24
520.311	-89.09
520.514	197.63
520.716	101.37
520.918	134.14
521.121	23.55
521.323	56.32
521.525	58.37
521.728	160.77
521.93	11.26
522.132	166.91
522.335	611.32
522.537	463.86
522.739	-5.12
522.941	119.81
523.144	52.22
523.346	64.51
523.548	80.89
523.75	74.75
523.952	82.94
524.155	27.65
524.357	60.42
524.559	72.7
524.761	130.05
524.963	97.28
525.165	46.08
525.368	-15.36
525.57	39.94
525.772	50.18
525.974	-13.31
526.176	105.47
526.378	41.98
526.58	140.29
526.782	158.72
526.984	9.22
527.186	-52.22
527.388	-29.7
527.59	19.46
527.792	35.84
527.994	111.61
528.196	78.85
528.398	95.23
528.6	150.53
528.802	187.39
529.004	23.55
529.206	31.74
529.408	72.7
529.609	15.36
529.811	9.22
530.013	44.03
530.215	117.76
530.417	1.02
530.619	46.08
530.821	11.26
531.022	23.55
531.224	64.51
531.426	21.5
531.628	7.17
531.829	41.98
532.031	11.26
532.233	-13.31
532.435	44.03
532.636	52.22
532.838	33.79
533.04	89.09
533.241	19.46
533.443	44.03
533.645	54.27
533.846	111.61
534.048	-25.6
534.25	121.85
534.451	48.13
534.653	13.31
534.855	-25.6
535.056	89.09
535.258	-7.17
535.459	82.94
535.661	74.75
535.862	74.75
536.064	-25.6
536.265	76.8
536.467	23.55
536.668	-15.36
536.87	46.08
537.071	27.65
537.273	82.94
537.474	27.65
537.676	52.22
537.877	-21.5
538.078	15.36
538.28	15.36
538.481	3.07
538.683	87.04
538.884	3.07
539.085	-21.5
539.287	15.36
539.488	150.53
539.689	-5.12
539.891	132.09
540.092	56.32
540.293	17.41
540.495	80.89
540.696	121.85
540.897	56.32
541.098	48.13
541.3	-54.27
541.501	11.26
541.702	-35.84
541.903	23.55
542.104	72.7
542.306	-84.99
542.507	130.05
542.708	70.65
542.909	97.28
543.11	150.53
543.311	80.89
543.512	56.32
543.713	-80.89
543.915	11.26
544.116	3.07
544.317	74.75
544.518	27.65
544.719	35.84
544.92	103.42
545.121	152.57
545.322	183.29
545.523	78.85
545.724	76.8
545.925	74.75
546.126	46.08
546.327	164.86
546.528	115.71
546.729	9.22
546.929	48.13
547.13	76.8
547.331	58.37
547.532	123.9
547.733	93.18
547.934	70.65
548.135	-46.08
548.336	50.18
548.536	-72.7
548.737	21.5
548.938	52.22
549.139	78.85
549.34	97.28
549.54	58.37
549.741	78.85
549.942	19.46
550.143	-78.85
550.343	46.08
550.544	-62.46
550.745	21.5
550.945	35.84
551.146	72.7
551.347	138.24
551.547	23.55
551.748	97.28
551.949	44.03
552.149	54.27
552.35	48.13
552.551	52.22
552.751	121.85
552.952	52.22
553.152	15.36
553.353	107.52
553.553	27.65
553.754	-54.27
553.954	-46.08
554.155	39.94
554.356	-11.26
554.556	70.65
554.756	72.7
554.957	29.7
555.157	113.66
555.358	134.14
555.558	35.84
555.759	64.51
555.959	50.18
556.159	50.18
556.36	11.26
556.56	58.37
556.761	80.89
556.961	76.8
557.161	95.23
557.362	82.94
557.562	64.51
557.762	-33.79
557.963	60.42
558.163	64.51
558.363	-39.94
558.563	72.7
558.764	99.33
558.964	-46.08
559.164	-21.5
559.364	46.08
559.565	11.26
559.765	29.7
559.965	107.52
560.165	82.94
560.365	136.19
560.565	93.18
560.766	97.28
560.966	54.27
561.166	19.46
561.366	39.94
561.566	60.42
561.766	-15.36
561.966	41.98
562.166	113.66
562.366	60.42
562.566	19.46
562.766	-97.28
562.966	31.74
563.166	58.37
563.366	11.26
563.566	78.85
563.766	44.03
563.966	52.22
564.166	41.98
564.366	359.42
564.566	25.6
564.766	158.72
564.966	35.84
565.166	146.43
565.366	19.46
565.565	-27.65
565.765	-17.41
565.965	60.42
566.165	11.26
566.365	33.79
566.565	17.41
566.764	35.84
566.964	-78.85
567.164	138.24
567.364	115.71
567.564	76.8
567.763	-37.89
567.963	3.07
568.163	109.57
568.362	-17.41
568.562	99.33
568.762	13.31
568.961	82.94
569.161	97.28
569.361	72.7
569.56	54.27
569.76	21.5
569.96	-64.51
570.159	17.41
570.359	9.22
570.558	156.67
570.758	19.46
570.958	-44.03
571.157	19.46
571.357	66.56
571.556	91.13
571.756	134.14
571.955	134.14
572.155	39.94
572.354	160.77
572.554	64.51
572.753	107.52
572.953	-31.74
573.152	35.84
573.351	-33.79
573.551	99.33
573.75	9.22
573.95	62.46
574.149	158.72
574.348	76.8
574.548	84.99
574.747	119.81
574.946	5.12
575.146	41.98
575.345	21.5
575.544	-9.22
575.744	132.09
575.943	62.46
576.142	19.46
576.342	128
576.541	134.14
576.74	52.22
576.939	-29.7
577.138	9.22
577.338	105.47
577.537	111.61
577.736	3.07
577.935	13.31
578.134	19.46
578.333	109.57
578.533	48.13
578.732	17.41
578.931	-89.09
579.13	33.79
579.329	78.85
579.528	31.74
579.727	-19.46
579.926	89.09
580.125	60.42
580.324	113.66
580.523	-33.79
580.722	-54.27
580.921	1.02
581.12	-7.17
581.319	19.46
581.518	142.33
581.717	-56.32
581.916	-25.6
582.115	-119.81
582.314	-25.6
582.513	132.09
582.712	33.79
582.911	152.57
583.109	-15.36
583.308	-23.55
583.507	-60.42
583.706	-91.13
583.905	99.33
584.104	-23.55
584.302	138.24
584.501	-105.47
584.7	62.46
584.899	76.8
585.098	56.32
585.296	25.6
585.495	7.17
585.694	-5.12
585.892	33.79
586.091	50.18
586.29	78.85
586.488	72.7
586.687	25.6
586.886	21.5
587.084	-5.12
587.283	95.23
587.482	27.65
587.68	56.32
587.879	-25.6
588.077	60.42
588.276	56.32
588.475	54.27
588.673	56.32
588.872	93.18
589.07	-78.85
589.269	97.28
589.467	111.61
589.666	37.89
589.864	5.12
590.063	23.55
590.261	46.08
590.46	-64.51
590.658	52.22
590.857	-62.46
591.055	13.31
591.253	117.76
591.452	39.94
591.65	-46.08
591.848	29.7
592.047	80.89
592.245	23.55
592.444	64.51
592.642	48.13
592.84	50.18
593.038	41.98
593.237	-19.46
593.435	134.14
593.633	-50.18
593.832	52.22
594.03	140.29
594.228	87.04
594.426	15.36
594.624	-95.23
594.823	27.65
595.021	-37.89
595.219	70.65
595.417	15.36
595.615	74.75
595.813	-50.18
596.012	31.74
596.21	68.61
596.408	7.17
596.606	-23.55
596.804	93.18
597.002	27.65
597.2	25.6
597.398	-44.03
597.596	-74.75
597.794	82.94
597.992	62.46
598.19	9.22
598.388	66.56
598.586	105.47
598.784	136.19
598.982	-1.02
599.18	-56.32
599.378	111.61
599.576	-58.37
599.774	17.41
599.972	19.46
600.17	-37.89
600.368	44.03
600.565	-21.5
600.763	39.94
600.961	44.03
601.159	-17.41
601.357	17.41
601.555	60.42
601.752	-41.98
601.95	62.46
602.148	128
602.346	-19.46
602.544	-9.22
602.741	-54.27
602.939	19.46
603.137	-9.22
603.334	64.51
603.532	33.79
603.73	15.36
603.927	113.66
604.125	-89.09
604.323	-50.18
604.52	142.33
604.718	76.8
604.916	60.42
605.113	33.79
605.311	113.66
605.508	76.8
605.706	21.5
605.904	-5.12
606.101	-5.12
606.299	-31.74
606.496	89.09
606.694	-21.5
606.891	-27.65
607.089	76.8
607.286	74.75
607.484	41.98
607.681	-128
607.879	115.71
608.076	-11.26
608.273	-5.12
608.471	7.17
608.668	27.65
608.866	72.7
609.063	115.71
609.26	68.61
609.458	89.09
609.655	89.09
609.852	31.74
610.05	48.13
610.247	-21.5
610.444	68.61
610.642	-11.26
610.839	-50.18
611.036	48.13
611.233	27.65
611.431	13.31
611.628	29.7
611.825	11.26
612.022	25.6
612.22	29.7
612.417	-5.12
612.614	-3.07
612.811	101.37
613.008	-78.85
613.205	41.98
613.402	95.23
613.6	9.22
613.797	-9.22
613.994	125.95
614.191	93.18
614.388	19.46
614.585	-9.22
614.782	46.08
614.979	109.57
615.176	111.61
615.373	15.36
615.57	39.94
615.767	82.94
615.964	25.6
616.161	19.46
616.358	101.37
616.555	3.07
616.752	46.08
616.949	27.65
617.146	-23.55
617.343	-15.36
617.539	-19.46
617.736	-3.07
617.933	23.55
618.13	58.37
618.327	115.71
618.524	105.47
618.721	31.74
618.917	7.17
619.114	5.12
619.311	21.5
619.508	-91.13
619.704	48.13
619.901	70.65
620.098	-9.22
620.295	-33.79
620.491	72.7
620.688	56.32
620.885	5.12
621.081	99.33
621.278	-23.55
621.475	125.95
621.671	105.47
621.868	70.65
622.065	13.31
622.261	48.13
622.458	39.94
622.655	70.65
622.851	107.52
623.048	-46.08
623.244	46.08
623.441	109.57
623.637	17.41
623.834	64.51
624.03	7.17
624.227	35.84
624.423	-60.42
624.62	9.22
624.816	-44.03
625.013	-13.31
625.209	-35.84
625.406	52.22
625.602	41.98
625.798	146.43
625.995	35.84
626.191	-5.12
626.388	5.12
626.584	76.8
626.78	-37.89
626.977	64.51
627.173	52.22
627.369	-3.07
627.566	60.42
627.762	-60.42
627.958	39.94
628.154	5.12
628.351	1.02
628.547	3.07
628.743	-9.22
628.939	56.32
629.136	19.46
629.332	78.85
629.528	7.17
629.724	21.5
629.92	31.74
630.116	-25.6
630.313	68.61
630.509	3.07
630.705	48.13
630.901	-11.26
631.097	-39.94
631.293	89.09
631.489	-11.26
631.685	-21.5
631.881	37.89
632.077	-9.22
632.273	-50.18
632.469	35.84
632.665	91.13
632.861	15.36
633.057	48.13
633.253	68.61
633.449	76.8
633.645	101.37
633.841	103.42
634.037	39.94
634.233	52.22
634.429	52.22
634.625	72.7
634.821	87.04
635.017	-66.56
635.212	-52.22
635.408	-89.09
635.604	-11.26
635.8	-31.74
635.996	-33.79
636.191	7.17
636.387	64.51
636.583	19.46
636.779	76.8
636.975	-31.74
637.17	-17.41
637.366	-3.07
637.562	7.17
637.757	64.51
637.953	-39.94
638.149	-48.13
638.345	-48.13
638.54	68.61
638.736	78.85
638.931	33.79
639.127	9.22
639.323	-62.46
639.518	-60.42
639.714	1.02
639.909	-13.31
640.105	1.02
640.301	13.31
640.496	70.65
640.692	5.12
640.887	-35.84
641.083	-50.18
641.278	35.84
641.474	21.5
641.669	107.52
641.865	-7.17
642.06	41.98
642.256	109.57
642.451	-13.31
642.646	-31.74
642.842	-37.89
643.037	58.37
643.233	97.28
643.428	64.51
643.623	-9.22
643.819	82.94
644.014	168.96
644.209	-58.37
644.405	58.37
644.6	9.22
644.795	23.55
644.99	23.55
645.186	7.17
645.381	31.74
645.576	1.02
645.771	-5.12
645.967	113.66
646.162	50.18
646.357	44.03
646.552	7.17
646.747	-33.79
646.943	162.81
647.138	-27.65
647.333	-78.85
647.528	52.22
647.723	41.98
647.918	27.65
648.113	-21.5
648.308	76.8
648.504	-5.12
648.699	39.94
648.894	-31.74
649.089	119.81
649.284	31.74
649.479	29.7
649.674	3.07
649.869	33.79
650.064	27.65
650.259	-11.26
650.454	111.61
650.649	80.89
650.844	-68.61
651.038	148.48
651.233	-19.46
651.428	-9.22
651.623	31.74
651.818	113.66
652.013	111.61
652.208	-3.07
652.403	-82.94
652.597	56.32
652.792	-1.02
652.987	41.98
653.182	-11.26
653.377	76.8
653.571	23.55
653.766	-11.26
653.961	-5.12
654.156	39.94
654.35	-78.85
654.545	33.79
654.74	78.85
654.935	-29.7
655.129	-58.37
655.324	31.74
655.519	21.5
655.713	9.22
655.908	-5.12
656.102	66.56
656.297	-46.08
656.492	66.56
656.686	25.6
656.881	160.77
657.075	-60.42
657.27	-35.84
657.464	31.74
657.659	62.46
657.854	-48.13
658.048	39.94
658.243	33.79
658.437	95.23
658.631	62.46
658.826	9.22
659.02	56.32
659.215	62.46
659.409	1.02
659.604	23.55
659.798	-27.65
659.992	23.55
660.187	78.85
660.381	74.75
660.576	70.65
660.77	-29.7
660.964	-39.94
661.159	-7.17
661.353	17.41
661.547	54.27
661.742	3.07
661.936	-56.32
662.13	64.51
662.324	-1.02
662.519	46.08
662.713	56.32
662.907	-13.31
663.101	103.42
663.295	7.17
663.49	23.55
663.684	101.37
663.878	-56.32
664.072	27.65
664.266	60.42
664.46	64.51
664.654	-29.7
664.849	-19.46
665.043	39.94
665.237	80.89
665.431	-70.65
665.625	97.28
665.819	-66.56
666.013	171.01
666.207	41.98
666.401	52.22
666.595	-37.89
666.789	1.02
666.983	58.37
667.177	72.7
667.371	132.09
667.565	146.43
667.759	-50.18
667.953	-25.6
668.147	56.32
668.34	99.33
668.534	31.74
668.728	9.22
668.922	-50.18
669.116	39.94
669.31	-91.13
669.504	9.22
669.697	103.42
669.891	-19.46
670.085	-23.55
670.279	52.22
670.473	19.46
670.666	105.47
670.86	-13.31
671.054	39.94
671.248	99.33
671.441	48.13
671.635	-1.02
671.829	93.18
672.022	87.04
672.216	-29.7
672.41	115.71
672.603	56.32
672.797	-17.41
672.99	48.13
673.184	-41.98
673.378	5.12
673.571	37.89
673.765	-17.41
673.958	70.65
674.152	-29.7
674.345	95.23
674.539	-25.6
674.733	-21.5
674.926	41.98
675.12	-9.22
675.313	-21.5
675.506	72.7
675.7	17.41
675.893	-64.51
676.087	54.27
676.28	41.98
676.474	29.7
676.667	-23.55
676.86	27.65
677.054	76.8
677.247	15.36
677.441	162.81
677.634	-35.84
677.827	-7.17
678.02	64.51
678.214	-9.22
678.407	-17.41
678.6	-3.07
678.794	23.55
678.987	44.03
679.18	5.12
679.373	31.74
679.567	93.18
679.76	70.65
679.953	25.6
680.146	68.61
680.339	60.42
680.533	82.94
680.726	46.08
680.919	140.29
681.112	46.08
681.305	-9.22
681.498	-5.12
681.691	23.55
681.884	-13.31
682.077	-27.65
682.271	-13.31
682.464	-44.03
682.657	-7.17
682.85	128
683.043	66.56
683.236	-9.22
683.429	-11.26
683.622	-3.07
683.815	-3.07
684.008	21.5
684.201	46.08
684.393	-29.7
684.586	84.99
684.779	11.26
684.972	-54.27
685.165	11.26
685.358	23.55
685.551	-7.17
685.744	80.89
685.937	97.28
686.129	11.26
686.322	-33.79
686.515	-11.26
686.708	-7.17
686.901	13.31
687.093	115.71
687.286	-58.37
687.479	33.79
687.672	15.36
687.864	33.79
688.057	103.42
688.25	52.22
688.442	-76.8
688.635	-37.89
688.828	5.12
689.02	-52.22
689.213	-13.31
689.406	-7.17
689.598	-37.89
689.791	3.07
689.984	3.07
690.176	35.84
690.369	80.89
690.561	11.26
690.754	-27.65
690.946	56.32
691.139	27.65
691.331	37.89
691.524	-80.89
691.716	9.22
691.909	-3.07
692.101	-48.13
692.294	13.31
692.486	105.47
692.679	54.27
692.871	-13.31
693.063	3.07
693.256	-17.41
693.448	-23.55
693.641	50.18
693.833	25.6
694.025	13.31
694.218	-50.18
694.41	39.94
694.602	33.79
694.795	-52.22
694.987	37.89
695.179	289.79
695.372	5692.33
695.564	14596.9
695.756	10287.97
695.948	8598.4
696.14	4811.7
696.333	1672.17
696.525	1197.04
696.717	138.24
696.909	31.74
697.101	29.7
697.294	-11.26
697.486	46.08
697.678	3.07
697.87	-17.41
698.062	7.17
698.254	-13.31
698.446	-5.12
698.638	-5.12
698.83	48.13
699.022	52.22
699.215	-19.46
699.407	19.46
699.599	29.7
699.791	-7.17
699.983	-9.22
700.175	115.71
700.367	74.75
700.558	11.26
700.75	3.07
700.942	27.65
701.134	68.61
701.326	-7.17
701.518	171.01
701.71	17.41
701.902	-13.31
702.094	-7.17
702.286	33.79
702.477	-31.74
702.669	97.28
702.861	-37.89
703.053	9.22
703.245	35.84
703.436	-21.5
703.628	-17.41
703.82	115.71
704.012	-25.6
704.203	-21.5
704.395	7.17
704.587	115.71
704.779	25.6
704.97	80.89
705.162	156.67
705.354	447.48
705.545	4717.5
705.737	9110.39
705.929	12387.14
706.12	7504.78
706.312	3929.03
706.503	2509.79
706.695	275.45
706.887	349.18
707.078	93.18
707.27	136.19
707.461	-93.18
707.653	-11.26
707.844	35.84
708.036	115.71
708.227	107.52
708.419	-31.74
708.61	31.74
708.802	72.7
708.993	183.29
709.185	62.46
709.376	27.65
709.567	50.18
709.759	64.51
709.95	-31.74
710.141	54.27
710.333	68.61
710.524	17.41
710.716	-82.94
710.907	1.02
711.098	54.27
711.289	31.74
711.481	50.18
711.672	13.31
711.863	87.04
712.055	-52.22
712.246	13.31
712.437	-62.46
712.628	84.99
712.82	54.27
713.011	50.18
713.202	-44.03
713.393	-11.26
713.584	44.03
713.775	54.27
713.967	46.08
714.158	5.12
714.349	84.99
714.54	-29.7
714.731	-21.5
714.922	44.03
715.113	117.76
715.304	68.61
715.495	99.33
715.686	84.99
715.877	62.46
716.068	-1.02
716.259	29.7
716.45	62.46
716.641	17.41
716.832	134.14
717.023	93.18
717.214	5.12
717.405	33.79
717.596	-7.17
717.787	52.22
717.978	21.5
718.169	-21.5
718.36	-56.32
718.55	15.36
718.741	27.65
718.932	39.94
719.123	-3.07
719.314	27.65
719.505	-95.23
719.695	19.46
719.886	-54.27
720.077	84.99
720.268	13.31
720.458	33.79
720.649	-101.37
720.84	50.18
721.031	60.42
721.221	41.98
721.412	11.26
721.603	103.42
721.793	-11.26
721.984	70.65
722.175	-1.02
722.365	-11.26
722.556	101.37
722.746	-5.12
722.937	-21.5
723.128	-60.42
723.318	-31.74
723.509	70.65
723.699	103.42
723.89	82.94
724.08	-56.32
724.271	-74.75
724.461	78.85
724.652	123.9
724.842	17.41
725.033	11.26
725.223	35.84
725.414	60.42
725.604	-15.36
725.794	58.37
725.985	21.5
726.175	70.65
726.366	31.74
726.556	31.74
726.746	-3.07
726.937	9.22
727.127	39.94
727.317	-31.74
727.508	54.27
727.698	48.13
727.888	60.42
728.079	17.41
728.269	-21.5
728.459	105.47
728.649	68.61
728.84	31.74
729.03	-7.17
729.22	5.12
729.41	52.22
729.6	-25.6
729.791	-13.31
729.981	-11.26
730.171	39.94
730.361	109.57
730.551	-23.55
730.741	19.46
730.931	-80.89
731.121	82.94
731.311	226.3
731.502	-13.31
731.692	-9.22
731.882	39.94
732.072	41.98
732.262	-41.98
732.452	-11.26
732.642	-62.46
732.832	5.12
733.022	82.94
733.212	74.75
733.402	48.13
733.591	-15.36
733.781	3.07
733.971	23.55
734.161	93.18
734.351	15.36
734.541	-3.07
734.731	-50.18
734.921	158.72
735.111	1.02
735.3	132.09
735.49	-17.41
735.68	-7.17
735.87	-31.74
736.06	76.8
736.249	84.99
736.439	70.65
736.629	109.57
736.819	-13.31
737.008	1061.87
737.198	4645.82
737.388	17746.67
737.577	21410.49
737.767	12292.93
737.957	12477.25
738.146	7955.33
738.336	2765.78
738.526	3222.48
738.715	797.68
738.905	263.16
739.094	173.05
739.284	48.13
739.474	72.7
739.663	97.28
739.853	89.09
740.042	27.65
740.232	31.74
740.421	-44.03
740.611	31.74
740.8	3.07
740.99	-37.89
741.179	-19.46
741.369	31.74
741.558	25.6
741.748	23.55
741.937	44.03
742.126	-7.17
742.316	37.89
742.505	113.66
742.695	3.07
742.884	-25.6
743.073	103.42
743.263	72.7
743.452	13.31
743.641	-41.98
743.831	78.85
744.02	-9.22
744.209	-21.5
744.398	64.51
744.588	-52.22
744.777	105.47
744.966	-72.7
745.155	91.13
745.345	93.18
745.534	13.31
745.723	-11.26
745.912	134.14
746.101	-3.07
746.29	-58.37
746.48	84.99
746.669	66.56
746.858	97.28
747.047	-44.03
747.236	1.02
747.425	91.13
747.614	41.98
747.803	33.79
747.992	39.94
748.181	66.56
748.37	1.02
748.559	15.36
748.748	44.03
748.937	93.18
749.126	689.14
749.315	2466.78
749.504	7551.88
749.693	15569.68
749.882	12680
750.071	9626.48
750.26	14127.91
750.449	12798.78
750.638	20009.68
750.826	23607.96
751.015	15489.81
751.204	11156.31
751.393	10625.89
751.582	4459.45
751.771	3433.42
751.959	1676.26
752.148	619.51
752.337	322.56
752.526	76.8
752.714	64.51
752.903	-87.04
753.092	142.33
753.281	-31.74
753.469	97.28
753.658	-23.55
753.847	37.89
754.035	35.84
754.224	183.29
754.413	123.9
754.601	97.28
754.79	132.09
754.979	-1.02
755.167	35.84
755.356	95.23
755.544	17.41
755.733	105.47
755.921	78.85
756.11	87.04
756.298	80.89
756.487	11.26
756.675	15.36
756.864	-7.17
757.052	-5.12
757.241	15.36
757.429	-70.65
757.618	-9.22
757.806	25.6
757.995	64.51
758.183	27.65
758.371	19.46
758.56	-39.94
758.748	-39.94
758.937	84.99
759.125	64.51
759.313	3.07
759.502	46.08
759.69	31.74
759.878	-1.02
760.066	-31.74
760.255	-44.03
760.443	27.65
760.631	52.22
760.819	46.08
761.008	46.08
761.196	31.74
761.384	17.41
761.572	66.56
761.761	29.7
761.949	769.01
762.137	840.69
762.325	9659.24
762.513	19387.1
762.701	25277.05
762.889	37198.28
763.077	39999.9
763.266	23601.82
763.454	21598.9
763.642	17281.78
763.83	10599.26
764.018	7783.31
764.206	6546.33
764.394	2563.03
764.582	2018.27
764.77	670.71
764.958	205.82
765.146	44.03
765.334	58.37
765.522	70.65
765.71	-111.61
765.898	31.74
766.085	39.94
766.273	179.2
766.461	-44.03
766.649	70.65
766.837	13.31
767.025	80.89
767.213	-37.89
767.401	-44.03
767.588	66.56
767.776	1.02
767.964	31.74
768.152	-1.02
768.339	-37.89
768.527	68.61
768.715	17.41
768.903	41.98
769.09	21.5
769.278	-54.27
769.466	89.09
769.654	-17.41
769.841	46.08
770.029	58.37
770.217	-111.61
770.404	7.17
770.592	17.41
770.779	19.46
770.967	56.32
771.155	142.33
771.342	1002.48
771.53	10742.62
771.717	16481.03
771.905	8829.82
772.092	10644.32
772.28	7994.25
772.467	3867.59
772.655	1571.82
772.842	1213.42
773.03	158.72
773.217	113.66
773.405	-72.7
773.592	58.37
773.78	-3.07
773.967	-7.17
774.154	105.47
774.342	25.6
774.529	-54.27
774.717	-7.17
774.904	-74.75
775.091	105.47
775.279	107.52
775.466	54.27
775.653	-60.42
775.841	-11.26
776.028	-37.89
776.215	72.7
776.402	-11.26
776.59	-11.26
776.777	29.7
776.964	52.22
777.151	27.65
777.338	-46.08
777.526	52.22
777.713	35.84
777.9	3.07
778.087	23.55
778.274	35.84
778.461	-1.02
778.649	148.48
778.836	-1.02
779.023	-95.23
779.21	-48.13
779.397	27.65
779.584	-7.17
779.771	7.17
779.958	41.98
780.145	29.7
780.332	25.6
780.519	-25.6
780.706	-13.31
780.893	-29.7
781.08	-5.12
781.267	37.89
781.454	-5.12
781.641	84.99
781.828	80.89
782.015	7.17
782.202	132.09
782.388	54.27
782.575	21.5
782.762	70.65
782.949	115.71
783.136	68.61
783.323	-41.98
783.509	21.5
783.696	39.94
783.883	89.09
784.07	-41.98
784.257	54.27
784.443	76.8
784.63	64.51
784.817	80.89
785.004	-80.89
785.19	5.12
785.377	23.55
785.564	-11.26
785.75	93.18
785.937	17.41
786.124	-3.07
786.31	97.28
786.497	52.22
786.683	46.08
786.87	50.18
787.057	-17.41
787.243	162.81
787.43	-70.65
787.616	84.99
787.803	-35.84
787.989	58.37
788.176	21.5
788.362	13.31
788.549	15.36
788.735	70.65
788.922	-27.65
789.108	-15.36
789.295	17.41
789.481	-31.74
789.668	-64.51
789.854	27.65
790.04	-54.27
790.227	27.65
790.413	-21.5
790.599	-3.07
790.786	58.37
790.972	23.55
791.158	-39.94
791.345	64.51
791.531	93.18
791.717	177.15
791.904	72.7
792.09	56.32
792.276	-44.03
792.462	-41.98
792.649	56.32
792.835	117.76
793.021	68.61
793.207	99.33
793.393	-1.02
793.58	15.36
793.766	41.98
793.952	639.99
794.138	4936.63
794.324	8715.13
794.51	12632.9
794.696	7316.37
794.882	4348.86
795.069	2706.39
795.255	1731.56
795.441	220.16
795.627	185.34
795.813	21.5
795.999	7.17
796.185	89.09
796.371	66.56
796.557	44.03
796.743	154.62
796.929	27.65
797.115	-9.22
797.3	-3.07
797.486	-17.41
797.672	29.7
797.858	15.36
798.044	62.46
798.23	-31.74
798.416	54.27
798.602	111.61
798.788	-9.22
798.973	-76.8
799.159	97.28
799.345	66.56
799.531	9.22
799.717	70.65
799.902	33.79
800.088	2952.15
800.274	4770.74
800.46	3355.6
800.645	4637.63
800.831	12434.24
801.017	13417.27
801.202	10175.33
801.388	8948.6
801.574	7732.11
801.759	2497.5
801.945	1915.87
802.131	756.72
802.316	408.57
802.502	93.18
802.687	29.7
802.873	7.17
803.058	19.46
803.244	-29.7
803.43	5.12
803.615	95.23
803.801	-56.32
803.986	39.94
804.172	-82.94
804.357	123.9
804.543	19.46
804.728	64.51
804.913	-78.85
805.099	23.55
805.284	70.65
805.47	74.75
805.655	-1.02
805.84	119.81
806.026	-35.84
806.211	50.18
806.397	-21.5
806.582	-21.5
806.767	70.65
806.953	-9.22
807.138	-48.13
807.323	-25.6
807.508	15.36
807.694	5.12
807.879	41.98
808.064	74.75
808.249	15.36
808.435	-25.6
808.62	7.17
808.805	39.94
808.99	119.81
809.175	1.02
809.361	982
809.546	1897.44
809.731	7922.57
809.916	17011.45
810.101	20941.5
810.286	15895.31
810.471	18287.34
810.656	22151.85
810.841	23808.66
811.026	26094.19
811.211	35174.89
811.396	39250.35
811.581	30321.2
811.766	25776.76
811.951	24969.86
812.136	18676.45
812.321	13556.53
812.506	11117.4
812.691	9061.24
812.876	5335.98
813.061	3437.52
813.246	2225.12
813.431	1141.74
813.616	205.82
813.801	119.81
813.986	62.46
814.17	54.27
814.355	29.7
814.54	-3.07
814.725	-52.22
814.91	134.14
815.094	-11.26
815.279	48.13
815.464	-48.13
815.649	125.95
815.833	19.46
816.018	50.18
816.203	13.31
816.388	15.36
816.572	23.55
816.757	17.41
816.942	-50.18
817.126	74.75
817.311	-3.07
817.496	134.14
817.68	89.09
817.865	1.02
818.049	-3.07
818.234	97.28
818.419	41.98
818.603	76.8
818.788	41.98
818.972	21.5
819.157	-84.99
819.341	46.08
819.526	-23.55
819.71	-3.07
819.895	31.74
820.079	21.5
820.264	35.84
820.448	84.99
820.633	78.85
820.817	78.85
821.001	89.09
821.186	19.46
821.37	62.46
821.554	97.28
821.739	13.31
821.923	-74.75
822.108	1.02
822.292	44.03
822.476	9.22
822.66	-13.31
822.845	105.47
823.029	-7.17
823.213	-1.02
823.398	-50.18
823.582	46.08
823.766	150.53
823.95	19.46
824.134	50.18
824.319	37.89
824.503	39.94
824.687	-19.46
824.871	15.36
825.055	74.75
825.239	-29.7
825.423	17.41
825.608	48.13
825.792	138.24
825.976	-27.65
826.16	1268.72
826.344	4762.55
826.528	3677.13
826.712	1729.51
826.896	338.94
827.08	240.64
827.264	-7.17
827.448	44.03
827.632	97.28
827.816	21.5
828	-21.5
828.184	52.22
828.368	-19.46
828.552	21.5
828.736	-35.84
828.919	11.26
829.103	99.33
829.287	-48.13
829.471	11.26
829.655	39.94
829.839	130.05
830.023	-13.31
830.206	11.26
830.39	87.04
830.574	35.84
830.758	1.02
830.941	82.94
831.125	31.74
831.309	39.94
831.493	70.65
831.676	15.36
831.86	7.17
832.044	95.23
832.227	-44.03
832.411	31.74
832.595	21.5
832.778	-11.26
832.962	52.22
833.146	97.28
833.329	21.5
833.513	54.27
833.696	93.18
833.88	50.18
834.064	84.99
834.247	-58.37
834.431	-7.17
834.614	5.12
834.798	-48.13
834.981	-17.41
835.165	-66.56
835.348	70.65
835.532	-21.5
835.715	27.65
835.898	-19.46
836.082	-25.6
836.265	95.23
836.449	25.6
836.632	48.13
836.815	-27.65
836.999	35.84
837.182	-21.5
837.365	72.7
837.549	80.89
837.732	41.98
837.915	187.39
838.099	-27.65
838.282	-3.07
838.465	195.58
838.648	33.79
838.832	52.22
839.015	-27.65
839.198	-21.5
839.381	27.65
839.565	-56.32
839.748	-15.36
839.931	44.03
840.114	35.84
840.297	50.18
840.48	791.54
840.663	6003.62
840.847	10247.01
841.03	11250.52
841.213	7652.24
841.396	6972.31
841.579	5391.28
841.762	5221.3
841.945	4099.01
842.128	6103.97
842.311	9509.74
842.494	13552.43
842.677	12477.25
842.86	10568.54
843.043	8803.19
843.226	7025.56
843.409	3206.1
843.592	2264.03
843.775	736.24
843.958	312.32
844.141	142.33
844.323	-9.22
844.506	105.47
844.689	-17.41
844.872	27.65
845.055	76.8
845.238	80.89
845.42	-80.89
845.603	17.41
845.786	21.5
845.969	1.02
846.152	31.74
846.334	5.12
846.517	62.46
846.7	-5.12
846.883	46.08
847.065	23.55
847.248	-11.26
847.431	31.74
847.613	9.22
847.796	58.37
847.979	-39.94
848.161	31.74
848.344	107.52
848.526	58.37
848.709	-62.46
848.892	15.36
849.074	54.27
849.257	-5.12
849.439	99.33
849.622	25.6
849.804	78.85
849.987	-25.6
850.169	76.8
850.352	54.27
850.534	56.32
850.717	119.81
850.899	41.98
851.082	-39.94
851.264	-41.98
851.446	76.8
851.629	5.12
851.811	99.33
851.994	-44.03
852.176	17.41
852.358	789.49
852.541	363.51
852.723	322.56
852.905	-5.12
853.088	44.03
853.27	-17.41
853.452	25.6
853.635	27.65
853.817	66.56
853.999	-21.5
854.181	7.17
854.363	3.07
854.546	64.51
854.728	29.7
854.91	-9.22
855.092	-17.41
855.274	17.41
855.457	93.18
855.639	21.5
855.821	-68.61
856.003	78.85
856.185	-132.09
856.367	-17.41
856.549	70.65
856.731	70.65
856.913	109.57
857.095	-56.32
857.277	-21.5
857.459	-7.17
857.641	3.07
857.823	99.33
858.005	33.79
858.187	-25.6
858.369	66.56
858.551	87.04
858.733	-99.33
858.915	5.12
859.097	17.41
859.279	7.17
859.461	123.9
859.643	-82.94
859.824	29.7
860.006	33.79
860.188	17.41
860.37	5.12
860.552	46.08
860.734	91.13
860.915	-25.6
861.097	-66.56
861.279	23.55
861.461	-82.94
861.642	52.22
861.824	111.61
862.006	29.7
862.188	97.28
862.369	29.7
862.551	9.22
862.733	74.75
862.914	91.13
863.096	19.46
863.278	9.22
863.459	5.12
863.641	23.55
863.822	54.27
864.004	52.22
864.185	-19.46
864.367	25.6
864.549	74.75
864.73	72.7
864.912	-11.26
865.093	52.22
865.275	58.37
865.456	21.5
865.638	-23.55
865.819	107.52
866.001	48.13
866.182	60.42
866.363	25.6
866.545	-15.36
866.726	7.17
866.908	60.42
867.089	60.42
867.27	46.08
867.452	-66.56
867.633	56.32
867.814	62.46
867.996	21.5
868.177	58.37
868.358	-15.36
868.54	29.7
868.721	72.7
868.902	-60.42
869.083	-37.89
869.265	115.71
869.446	105.47
869.627	19.46
869.808	19.46
869.989	74.75
870.171	-7.17
870.352	-15.36
870.533	58.37
870.714	68.61
870.895	-19.46
871.076	66.56
871.257	5.12
871.438	158.72
871.619	-15.36
871.801	9.22
871.982	-48.13
872.163	68.61
872.344	-19.46
872.525	7.17
872.706	74.75
872.887	-9.22
873.068	48.13
873.249	97.28
873.43	9.22
873.61	-64.51
873.791	11.26
873.972	97.28
874.153	76.8
874.334	-17.41
874.515	-48.13
874.696	56.32
874.877	78.85
875.058	76.8
875.238	-23.55
875.419	3.07
875.6	-5.12
875.781	46.08
875.962	35.84
876.142	128
876.323	33.79
876.504	17.41
876.685	-9.22
876.865	-9.22
877.046	-3.07
877.227	74.75
877.407	50.18
877.588	107.52
877.769	62.46
877.949	15.36
878.13	35.84
878.311	27.65
878.491	13.31
878.672	39.94
878.853	84.99
879.033	-97.28
879.214	-39.94
879.394	-31.74
879.575	-62.46
879.755	-91.13
879.936	125.95
880.116	44.03
880.297	9.22
880.477	103.42
880.658	-3.07
880.838	-15.36
881.019	3.07
881.199	35.84
881.38	-25.6
881.56	111.61
881.74	62.46
881.921	41.98
882.101	93.18
882.281	-68.61
882.462	191.49
882.642	132.09
882.822	-35.84
883.003	-17.41
883.183	29.7
883.363	1.02
883.544	-9.22
883.724	-15.36
883.904	-80.89
884.084	78.85
884.265	-9.22
884.445	-13.31
884.625	-9.22
884.805	-1.02
884.985	11.26
885.166	-89.09
885.346	23.55
885.526	50.18
885.706	21.5
885.886	-52.22
886.066	-17.41
886.246	17.41
886.426	11.26
886.606	39.94
886.787	5.12
886.967	101.37
887.147	-33.79
887.327	-19.46
887.507	78.85
887.687	1.02
887.867	15.36
888.047	-21.5
888.227	39.94
888.406	-68.61
888.586	25.6
888.766	52.22
888.946	54.27
889.126	-66.56
889.306	-17.41
889.486	87.04
889.666	66.56
889.846	99.33
890.025	9.22
890.205	-17.41
890.385	-44.03
890.565	119.81
890.745	-37.89
890.924	-78.85
891.104	48.13
891.284	39.94
891.464	17.41
891.643	23.55
891.823	-50.18
892.003	-91.13
892.183	-76.8
892.362	9.22
892.542	-17.41
892.722	-11.26
892.901	72.7
893.081	44.03
893.26	80.89
893.44	31.74
893.62	-13.31
893.799	76.8
893.979	-13.31
894.158	35.84
894.338	-21.5
894.517	-5.12
894.697	31.74
894.877	50.18
895.056	-46.08
895.236	-64.51
895.415	3.07
895.594	15.36
895.774	62.46
895.953	-9.22
896.133	48.13
896.312	44.03
896.492	11.26
896.671	31.74
896.85	3.07
897.03	125.95
897.209	23.55
897.388	-29.7
897.568	13.31
897.747	-11.26
897.926	44.03
898.106	50.18
898.285	46.08
898.464	9.22
898.643	13.31
898.823	17.41
899.002	-23.55
899.181	56.32
899.36	19.46
899.54	-5.12
899.719	35.84
899.898	-44.03
900.077	23.55
900.256	60.42
900.435	-11.26
900.614	-62.46
900.794	-27.65
900.973	-21.5
901.152	-23.55
901.331	27.65
901.51	74.75
901.689	58.37
901.868	3.07
902.047	117.76
902.226	39.94
902.405	-31.74
902.584	50.18
902.763	68.61
902.942	33.79
903.121	113.66
903.3	1.02
903.479	27.65
903.658	-27.65
903.837	-54.27
904.015	-23.55
904.194	-17.41
904.373	84.99
904.552	1.02
904.731	105.47
904.91	64.51
905.089	1.02
905.267	33.79
905.446	27.65
905.625	84.99
905.804	-13.31
905.982	-3.07
906.161	31.74
906.34	-35.84
906.519	33.79
906.697	64.51
906.876	-5.12
907.055	54.27
907.233	66.56
907.412	54.27
907.591	19.46
907.769	-52.22
907.948	80.89
908.127	-19.46
908.305	84.99
908.484	78.85
908.662	-89.09
908.841	-25.6
909.019	3.07
909.198	17.41
909.377	115.71
909.555	5.12
909.734	54.27
909.912	39.94
910.09	-5.12
910.269	-13.31
910.447	-7.17
910.626	27.65
910.804	117.76
910.983	-50.18
911.161	9.22
911.339	-19.46
911.518	56.32
911.696	125.95
911.875	101.37
912.053	72.7
912.231	17.41
912.41	-21.5
912.588	27.65
912.766	31.74
912.944	-78.85
913.123	-3.07
913.301	-31.74
913.479	-119.81
913.657	29.7
913.836	177.15
914.014	76.8
914.192	103.42
914.37	-64.51
914.548	-7.17
914.727	39.94
914.905	-21.5
915.083	5.12
915.261	-123.9
915.439	37.89
915.617	-105.47
915.795	107.52
915.973	-15.36
916.151	29.7
916.329	41.98
916.508	3.07
916.686	95.23
916.864	-48.13
917.042	41.98
917.22	-113.66
917.398	-19.46
917.575	46.08
917.753	115.71
917.931	56.32
918.109	-89.09
918.287	35.84
918.465	68.61
918.643	-7.17
918.821	-37.89
918.999	52.22
919.177	-97.28
919.354	33.79
919.532	-17.41
919.71	82.94
919.888	148.48
920.066	-25.6
920.243	19.46
920.421	33.79
920.599	50.18
920.777	-19.46
920.954	-9.22
921.132	-56.32
921.31	5.12
921.488	-9.22
921.665	101.37
921.843	-41.98
922.021	15.36
922.198	-37.89
922.376	62.46
922.553	-23.55
922.731	7.17
922.909	-58.37
923.086	80.89
923.264	60.42
923.441	128
923.619	-17.41
923.796	46.08
923.974	-29.7
924.152	27.65
924.329	3.07
924.507	60.42
924.684	25.6
924.861	25.6
925.039	50.18
925.216	13.31
925.394	17.41
925.571	-7.17
925.749	-3.07
925.926	46.08
926.103	35.84
926.281	35.84
926.458	23.55
926.635	52.22
926.813	17.41
926.99	93.18
927.167	7.17
927.345	-35.84
927.522	-95.23
927.699	1.02
927.876	-76.8
928.054	-23.55
928.231	15.36
928.408	-101.37
928.585	-17.41
928.763	62.46
928.94	7.17
929.117	74.75
929.294	9.22
929.471	-60.42
929.648	-48.13
929.825	-123.9
930.003	29.7
930.18	97.28
930.357	25.6
930.534	87.04
930.711	31.74
930.888	60.42
931.065	29.7
931.242	-1.02
931.419	-125.95
931.596	136.19
931.773	46.08
931.95	-56.32
932.127	-21.5
932.304	11.26
932.481	-31.74
932.658	66.56
932.835	-3.07
933.011	9.22
933.188	-39.94
933.365	62.46
933.542	95.23
933.719	62.46
933.896	13.31
934.073	56.32
934.249	-11.26
934.426	72.7
934.603	54.27
934.78	25.6
934.957	9.22
935.133	-13.31
935.31	1.02
935.487	37.89
935.664	-46.08
935.84	82.94
936.017	21.5
936.194	50.18
936.37	19.46
936.547	-58.37
936.724	-70.65
936.9	13.31
937.077	-80.89
937.253	13.31
937.43	-15.36
937.607	-62.46
937.783	21.5
937.96	9.22
938.136	-13.31
938.313	-39.94
938.489	50.18
938.666	56.32
938.842	89.09
939.019	19.46
939.195	27.65
939.372	-25.6
939.548	39.94
939.725	-21.5
939.901	37.89
940.077	-70.65
940.254	-27.65
940.43	80.89
940.607	-9.22
940.783	68.61
940.959	19.46
941.136	9.22
941.312	27.65
941.488	103.42
941.665	37.89
941.841	-5.12
942.017	11.26
942.193	50.18
942.37	109.57
942.546	19.46
942.722	19.46
942.898	17.41
943.074	31.74
943.251	27.65
943.427	-11.26
943.603	-41.98
943.779	39.94
943.955	1.02
944.131	19.46
944.308	-1.02
944.484	5.12
944.66	72.7
944.836	-21.5
945.012	-19.46
945.188	-35.84
945.364	11.26
945.54	-5.12
945.716	72.7
945.892	17.41
946.068	62.46
946.244	52.22
946.42	-46.08
946.596	35.84
946.772	-33.79
946.948	46.08
947.124	144.38
947.3	23.55
947.475	117.76
947.651	1.02
947.827	21.5
948.003	-44.03
948.179	-7.17
948.355	-66.56
948.531	62.46
948.706	-9.22
948.882	80.89
949.058	11.26
949.234	44.03
949.409	15.36
949.585	-11.26
949.761	60.42
949.937	80.89
950.112	1.02
950.288	62.46
950.464	33.79
950.639	-1.02
950.815	-13.31
950.991	-54.27
951.166	5.12
951.342	44.03
951.518	66.56
951.693	-148.48
951.869	68.61
952.044	-21.5
952.22	-11.26
952.395	48.13
952.571	19.46
952.747	76.8
952.922	-52.22
953.098	23.55
953.273	25.6
953.448	33.79
953.624	9.22
953.799	58.37
953.975	-101.37
954.15	64.51
954.326	-25.6
954.501	76.8
954.676	1.02
954.852	-70.65
955.027	-52.22
955.203	3.07
955.378	13.31
955.553	-91.13
955.729	-17.41
955.904	60.42
956.079	-11.26
956.254	50.18
956.43	-21.5
956.605	74.75
956.78	46.08
956.955	80.89
957.131	-60.42
957.306	9.22
957.481	-7.17
957.656	93.18
957.831	70.65
958.007	5.12
958.182	70.65
958.357	101.37
958.532	82.94
958.707	-54.27
958.882	-60.42
959.057	107.52
959.232	-1.02
959.407	-50.18
959.582	115.71
959.757	68.61
959.932	-19.46
960.107	-15.36
960.282	25.6
960.457	35.84
960.632	39.94
960.807	1.02
960.982	-27.65
961.157	111.61
961.332	19.46
961.507	-87.04
961.682	64.51
961.857	103.42
962.032	48.13
962.206	41.98
962.381	-3.07
962.556	78.85
962.731	-15.36
962.906	7.17
963.081	-13.31
963.255	50.18
963.43	48.13
963.605	-54.27
963.78	-58.37
963.954	68.61
964.129	82.94
964.304	-9.22
964.479	-1.02
964.653	46.08
964.828	48.13
965.003	9.22
965.177	-31.74
965.352	35.84
965.526	-68.61
965.701	91.13
965.876	-31.74
966.05	46.08
966.225	29.7
966.399	33.79
966.574	5.12
966.748	-11.26
966.923	-17.41
967.098	5.12
967.272	9.22
967.446	125.95
967.621	-52.22
967.795	-29.7
967.97	-11.26
968.144	23.55
968.319	87.04
968.493	121.85
968.668	74.75
968.842	-19.46
969.016	-60.42
969.191	-27.65
969.365	-3.07
969.539	35.84
969.714	-50.18
969.888	-13.31
970.062	-19.46
970.237	60.42
970.411	-58.37
970.585	37.89
970.759	-29.7
970.934	-46.08
971.108	-78.85
971.282	66.56
971.456	138.24
971.63	17.41
971.805	1.02
971.979	111.61
972.153	5.12
972.327	1.02
972.501	-33.79
972.675	109.57
972.849	-76.8
973.024	-15.36
973.198	-17.41
973.372	-1.02
973.546	103.42
973.72	-13.31
973.894	27.65
974.068	-25.6
974.242	13.31
974.416	-46.08
974.59	19.46
974.764	-19.46
974.938	-33.79
975.112	-3.07
975.286	123.9
975.46	37.89
975.633	5.12
975.807	203.77
975.981	3.07
976.155	33.79
976.329	78.85
976.503	68.61
976.677	-17.41
976.85	72.7
977.024	68.61
977.198	25.6
977.372	39.94
977.546	50.18
977.719	-41.98
977.893	-87.04
978.067	-39.94
978.241	29.7
978.414	35.84
978.588	-7.17
978.762	46.08
978.935	17.41
979.109	-68.61
979.283	33.79
979.456	13.31
979.63	-3.07
979.804	3.07
979.977	17.41
980.151	52.22
980.324	-37.89
980.498	-9.22
980.671	-17.41
980.845	-68.61
981.018	-7.17
981.192	-68.61
981.365	-56.32
981.539	15.36
981.712	-109.57
981.886	-54.27
982.059	48.13
982.233	5.12
982.406	146.43
982.58	31.74
982.753	-97.28
982.926	123.9
983.1	5.12
983.273	-1.02
983.446	17.41
983.62	-39.94
983.793	15.36
983.966	5.12
984.14	66.56
984.313	-50.18
984.486	-9.22
984.66	50.18
984.833	66.56
985.006	64.51
985.179	-23.55
985.352	31.74
985.526	82.94
985.699	52.22
985.872	70.65
986.045	-52.22
986.218	25.6
986.391	29.7
986.565	70.65
986.738	-121.85
986.911	5.12
987.084	91.13
987.257	-29.7
987.43	-60.42
987.603	-15.36
987.776	-25.6
987.949	29.7
988.122	25.6
988.295	17.41
988.468	76.8
988.641	-11.26
988.814	39.94
988.987	-11.26
989.16	-44.03
989.333	70.65
989.506	19.46
989.679	-1.02
989.852	31.74
990.025	9.22
990.197	121.85
990.37	54.27
990.543	107.52
990.716	87.04
990.889	25.6
991.062	7.17
991.234	-33.79
991.407	46.08
991.58	11.26
991.753	109.57
991.925	-111.61
992.098	9.22
992.271	-123.9
992.444	-7.17
992.616	50.18
992.789	37.89
992.962	-17.41
993.134	56.32
993.307	-11.26
993.479	25.6
993.652	11.26
993.825	17.41
993.997	-25.6
994.17	11.26
994.342	13.31
994.515	89.09
994.688	-31.74
994.86	70.65
995.033	-3.07
995.205	19.46
995.378	-33.79
995.55	44.03
995.723	-37.89
995.895	-70.65
996.067	27.65
996.24	-11.26
996.412	19.46
996.585	-17.41
996.757	-72.7
996.929	-9.22
997.102	48.13
997.274	29.7
997.447	123.9
997.619	87.04
997.791	46.08
997.964	41.98
998.136	39.94
998.308	52.22
998.48	101.37
998.653	82.94
998.825	-5.12
998.997	50.18
999.169	13.31
999.342	35.84
999.514	64.51
999.686	-33.79
999.858	27.65
1000.03	105.47
1000.202	-3.07
1000.374	17.41
1000.547	50.18
1000.719	91.13
1000.891	3.07
1001.063	3.07
1001.235	97.28
1001.407	-11.26
1001.579	68.61
1001.751	-23.55
1001.923	-35.84
1002.095	115.71
1002.267	33.79
1002.439	1.02
1002.611	23.55
1002.783	11.26
1002.955	-136.19
1003.127	-11.26
1003.299	5.12
1003.471	13.31
1003.643	70.65
1003.815	-66.56
1003.986	64.51
1004.158	54.27
1004.33	-7.17
1004.502	-13.31
1004.674	7.17
1004.846	113.66
1005.017	13.31
1005.189	107.52
1005.361	25.6
1005.533	82.94
1005.704	-50.18
1005.876	-9.22
1006.048	74.75
1006.22	-5.12
1006.391	11.26
1006.563	31.74
1006.735	-25.6
1006.906	-19.46
1007.078	-78.85
1007.25	70.65
1007.421	5.12
1007.593	41.98
1007.764	117.76
1007.936	7.17
1008.108	-54.27
1008.279	87.04
1008.451	-21.5
1008.622	35.84
1008.794	60.42
1008.965	46.08
1009.137	7.17
1009.308	21.5
1009.48	-62.46
1009.651	144.38
1009.823	-1.02
1009.994	58.37
1010.165	-54.27
1010.337	64.51
1010.508	-84.99
1010.68	11.26
1010.851	9.22
1011.022	27.65
1011.194	41.98
1011.365	5.12
1011.536	76.8
1011.708	80.89
1011.879	-50.18
1012.05	-35.84
1012.222	41.98
1012.393	80.89
1012.564	31.74
1012.735	74.75
1012.906	15.36
1013.078	-33.79
1013.249	-58.37
1013.42	68.61
1013.591	23.55
1013.762	91.13
1013.934	48.13
1014.105	-37.89
1014.276	111.61
1014.447	19.46
1014.618	-46.08
1014.789	-91.13
1014.96	91.13
1015.131	37.89
1015.302	41.98
1015.473	-46.08
1015.644	99.33
1015.815	82.94
1015.986	68.61
1016.157	-13.31
1016.328	-50.18
1016.499	7.17
1016.67	31.74
1016.841	29.7
1017.012	-66.56
1017.183	23.55
1017.354	68.61
1017.525	-35.84
1017.696	56.32
1017.867	70.65
1018.037	35.84
1018.208	13.31
1018.379	17.41
1018.55	50.18
1018.721	-19.46
1018.891	-1.02
1019.062	-74.75
1019.233	-3.07
1019.404	-1.02
1019.574	29.7
1019.745	-11.26
1019.916	-97.28
1020.087	-44.03
1020.257	62.46
1020.428	37.89
1020.599	54.27
1020.769	60.42
1020.94	1.02
1021.11	7.17
1021.281	82.94
1021.452	-35.84
1021.622	19.46
1021.793	-15.36
1021.963	11.26
1022.134	3.07
1022.305	-27.65
1022.475	-46.08
1022.646	29.7
1022.816	-9.22
1022.987	-13.31
1023.157	9.22
1023.327	117.76
1023.498	-37.89
1023.668	19.46
1023.839	64.51
1024.009	48.13
1024.18	-13.31
1024.35	60.42
1024.52	19.46
1024.691	128
1024.861	15.36
1025.031	11.26
1025.202	9.22
1025.372	-9.22
1025.542	-7.17
1025.713	50.18
1025.883	-41.98
1026.053	48.13
1026.223	-62.46
1026.394	48.13
1026.564	-21.5
1026.734	11.26
1026.904	64.51
1027.074	54.27
1027.245	-3.07
1027.415	37.89
1027.585	62.46
1027.755	-9.22
1027.925	146.43
1028.095	52.22
1028.265	-5.12
1028.435	-35.84
1028.606	46.08
1028.776	56.32
1028.946	74.75
1029.116	54.27
1029.286	76.8
1029.456	27.65
1029.626	66.56
1029.796	19.46
1029.966	29.7
1030.136	-11.26
1030.306	9.22
1030.475	123.9
1030.645	1.02
1030.815	44.03
1030.985	-37.89
1031.155	64.51
1031.325	39.94
1031.495	7.17
1031.665	-76.8
1031.835	-99.33
1032.004	64.51
1032.174	-27.65
1032.344	-123.9
1032.514	-19.46
1032.684	72.7
1032.853	68.61
1033.023	48.13
1033.193	-82.94
1033.362	21.5
1033.532	-37.89
1033.702	72.7
1033.872	5.12
1034.041	48.13
1034.211	-39.94
1034.381	29.7
1034.55	-62.46
1034.72	64.51
1034.889	-23.55
1035.059	-9.22
1035.229	-82.94
1035.398	27.65
1035.568	-35.84
1035.737	-84.99
1035.907	72.7
1036.076	82.94
1036.246	-44.03
1036.415	76.8
1036.585	48.13
1036.754	9.22
1036.924	29.7
1037.093	50.18
1037.263	25.6
1037.432	95.23
1037.601	35.84
1037.771	3.07
1037.94	-11.26
1038.11	39.94
1038.279	62.46
1038.448	-78.85
1038.618	99.33
1038.787	99.33
1038.956	35.84
1039.126	-56.32
1039.295	-48.13
1039.464	99.33
1039.633	13.31
1039.803	-11.26
1039.972	-44.03
1040.141	66.56
1040.31	1.02
1040.479	15.36
1040.649	37.89
1040.818	119.81
1040.987	70.65
1041.156	84.99
1041.325	-25.6
1041.494	33.79
1041.663	5.12
1041.833	31.74
1042.002	25.6
1042.171	97.28
1042.34	-52.22
1042.509	-48.13
1042.678	-101.37
