Data from LSP83_F5_Subt2_14-17-05-565.txt Node
Date: Tue Aug 22 14:17:05 EDT 2023
User: Emmanuel
Spectrometer: USB4A00615
Scans to average: 1
Trigger mode: 1
Integration Time (sec): 5.000000E-3
Electric dark correction enabled: true
Boxcar width: 0
XAxis mode: Wavelengths
Number of Pixels in Spectrum: 3648
>>>>>Begin Spectral Data<<<<<
346.606	-204.11
346.818	-204.11
347.029	-204.11
347.241	-17.75
347.452	88.75
347.664	19.11
347.876	27.31
348.087	-111.96
348.299	-75.09
348.51	90.79
348.722	-50.52
348.933	49.83
349.145	58.03
349.356	49.83
349.568	-23.89
349.779	-7.51
349.991	-25.94
350.202	-1.37
350.414	-146.77
350.625	-50.52
350.836	55.98
351.048	70.31
351.259	-32.08
351.471	-13.65
351.682	64.17
351.893	47.79
352.105	-44.37
352.316	2.73
352.527	-116.05
352.739	88.75
352.95	47.79
353.161	-42.32
353.372	-89.43
353.584	-91.48
353.795	123.56
354.006	-1.37
354.217	-34.13
354.429	-48.47
354.64	-17.75
354.851	-19.8
355.062	8.87
355.274	64.17
355.485	51.88
355.696	98.99
355.907	72.36
356.118	64.17
356.329	49.83
356.54	4.78
356.752	-3.41
356.963	-132.44
357.174	62.12
357.385	72.36
357.596	29.35
357.807	-38.23
358.018	58.03
358.229	109.22
358.44	82.6
358.651	55.98
358.862	-23.89
359.073	-1.37
359.284	51.88
359.495	51.88
359.706	2.73
359.917	-60.76
360.128	6.83
360.339	-75.09
360.55	-66.9
360.761	-19.8
360.972	-27.99
361.182	4.78
361.393	-81.24
361.604	-13.65
361.815	-75.09
362.026	-105.81
362.237	4.78
362.447	33.45
362.658	-83.28
362.869	0.68
363.08	45.74
363.291	23.21
363.501	12.97
363.712	21.16
363.923	-83.28
364.134	-66.9
364.344	47.79
364.555	-34.13
364.766	107.18
364.976	-64.85
365.187	-23.89
365.398	78.51
365.608	-79.19
365.819	55.98
366.03	-30.04
366.24	60.07
366.451	-21.84
366.662	-48.47
366.872	-58.71
367.083	-66.9
367.293	-87.38
367.504	-101.72
367.714	17.07
367.925	-52.56
368.135	-19.8
368.346	31.4
368.557	8.87
368.767	-21.84
368.977	-44.37
369.188	-62.8
369.398	21.16
369.609	35.5
369.819	-54.61
370.03	94.89
370.24	68.27
370.451	2.73
370.661	21.16
370.871	82.6
371.082	-7.51
371.292	49.83
371.502	35.5
371.713	45.74
371.923	-52.56
372.133	90.79
372.344	35.5
372.554	103.08
372.764	-5.46
372.975	51.88
373.185	-11.61
373.395	58.03
373.605	-54.61
373.816	72.36
374.026	-15.7
374.236	25.26
374.446	66.22
374.656	-9.56
374.867	72.36
375.077	-7.51
375.287	-9.56
375.497	66.22
375.707	-73.04
375.917	-58.71
376.127	-73.04
376.338	-46.42
376.548	4.78
376.758	86.7
376.968	-77.14
377.178	125.61
377.388	8.87
377.598	2.73
377.808	-15.7
378.018	-7.51
378.228	-11.61
378.438	45.74
378.648	94.89
378.858	88.75
379.068	-126.29
379.278	-34.13
379.488	88.75
379.698	-77.14
379.908	-3.41
380.118	25.26
380.327	-9.56
380.537	-75.09
380.747	51.88
380.957	-48.47
381.167	80.55
381.377	70.31
381.587	6.83
381.796	-85.33
382.006	23.21
382.216	-32.08
382.426	-101.72
382.636	33.45
382.845	-3.41
383.055	2.73
383.265	-23.89
383.475	-9.56
383.684	23.21
383.894	-56.66
384.104	-3.41
384.313	-48.47
384.523	31.4
384.733	10.92
384.942	84.65
385.152	-36.18
385.362	47.79
385.571	-27.99
385.781	-46.42
385.991	47.79
386.2	45.74
386.41	-64.85
386.619	41.64
386.829	-60.76
387.038	-42.32
387.248	-7.51
387.457	58.03
387.667	4.78
387.876	-46.42
388.086	12.97
388.295	33.45
388.505	-32.08
388.714	-1.37
388.924	0.68
389.133	4.78
389.343	-60.76
389.552	-17.75
389.762	33.45
389.971	-93.52
390.18	0.68
390.39	53.93
390.599	49.83
390.808	-27.99
391.018	119.46
391.227	12.97
391.436	10.92
391.646	-27.99
391.855	19.11
392.064	-25.94
392.274	-1.37
392.483	10.92
392.692	-81.24
392.901	45.74
393.111	-30.04
393.32	60.07
393.529	60.07
393.738	-7.51
393.947	37.55
394.157	4.78
394.366	-89.43
394.575	-32.08
394.784	-50.52
394.993	62.12
395.202	129.7
395.411	103.08
395.62	6.83
395.83	-50.52
396.039	41.64
396.248	64.17
396.457	37.55
396.666	4.78
396.875	92.84
397.084	31.4
397.293	98.99
397.502	78.51
397.711	-17.75
397.92	-58.71
398.129	-89.43
398.338	-36.18
398.547	-114
398.756	76.46
398.965	-73.04
399.174	72.36
399.382	41.64
399.591	-48.47
399.8	121.51
400.009	-79.19
400.218	-9.56
400.427	-5.46
400.636	29.35
400.844	55.98
401.053	127.66
401.262	-3.41
401.471	29.35
401.68	-1.37
401.888	92.84
402.097	0.68
402.306	-3.41
402.515	35.5
402.723	31.4
402.932	19.11
403.141	62.12
403.35	-58.71
403.558	21.16
403.767	-40.28
403.976	144.04
404.184	90.79
404.393	15.02
404.602	4.78
404.81	-11.61
405.019	31.4
405.227	-93.52
405.436	-48.47
405.645	109.23
405.853	17.07
406.062	-27.99
406.27	8.87
406.479	10.92
406.687	0.68
406.896	-32.08
407.104	41.64
407.313	39.59
407.521	17.07
407.73	-44.37
407.938	-36.18
408.147	-25.94
408.355	-85.33
408.563	-34.13
408.772	-40.28
408.98	49.83
409.189	35.5
409.397	47.79
409.605	35.5
409.814	41.64
410.022	23.21
410.23	-25.94
410.439	-38.23
410.647	88.75
410.855	49.83
411.064	2.73
411.272	6.83
411.48	10.92
411.688	31.4
411.897	162.47
412.105	-58.71
412.313	-21.85
412.521	76.46
412.73	31.4
412.938	-52.56
413.146	33.45
413.354	-46.42
413.562	-48.47
413.77	-109.91
413.979	-21.85
414.187	6.83
414.395	12.97
414.603	12.97
414.811	-11.61
415.019	68.27
415.227	29.35
415.435	-19.8
415.643	92.84
415.851	-27.99
416.059	6.83
416.267	-17.75
416.475	-13.65
416.683	105.13
416.891	-30.04
417.099	37.55
417.307	15.02
417.515	-15.7
417.723	-44.37
417.931	113.32
418.139	129.7
418.347	19.11
418.555	-25.94
418.763	-23.89
418.971	45.74
419.179	27.31
419.386	-21.85
419.594	-9.56
419.802	-79.19
420.01	31.4
420.218	25.26
420.426	-64.85
420.633	80.55
420.841	0.68
421.049	-85.33
421.257	82.6
421.464	47.79
421.672	86.7
421.88	-9.56
422.088	25.26
422.295	53.93
422.503	-132.44
422.711	-21.85
422.918	70.31
423.126	-9.56
423.334	-48.47
423.541	35.5
423.749	49.83
423.956	-32.08
424.164	70.31
424.372	31.4
424.579	-50.52
424.787	31.4
424.994	-66.9
425.202	27.31
425.409	53.93
425.617	-77.14
425.824	-3.41
426.032	-81.24
426.239	-15.7
426.447	-17.75
426.654	-3.41
426.862	-40.28
427.069	-132.44
427.277	60.07
427.484	19.11
427.692	51.88
427.899	-21.85
428.106	-46.42
428.314	35.5
428.521	39.59
428.728	19.11
428.936	17.07
429.143	197.29
429.351	-3.41
429.558	-64.85
429.765	58.03
429.972	6.83
430.18	156.33
430.387	88.75
430.594	84.65
430.801	62.12
431.009	90.79
431.216	10.92
431.423	19.11
431.63	82.6
431.838	49.83
432.045	-3.41
432.252	90.79
432.459	64.17
432.666	-17.75
432.873	-87.38
433.081	96.94
433.288	31.4
433.495	-17.75
433.702	37.55
433.909	39.59
434.116	62.12
434.323	-85.33
434.53	-42.32
434.737	21.16
434.944	-11.61
435.151	-152.91
435.358	0.68
435.565	12.97
435.772	-54.61
435.979	23.21
436.186	35.5
436.393	-15.7
436.6	-68.95
436.807	-34.13
437.014	-19.8
437.221	-54.61
437.428	-9.56
437.635	-9.56
437.841	4.78
438.048	-73.04
438.255	-30.04
438.462	98.99
438.669	135.85
438.876	29.35
439.082	-32.08
439.289	-5.46
439.496	12.97
439.703	-27.99
439.91	-5.46
440.116	-5.46
440.323	-34.13
440.53	-13.65
440.737	-52.56
440.943	113.32
441.15	-38.23
441.357	-68.95
441.563	-71
441.77	31.4
441.977	-73.04
442.183	90.79
442.39	-48.47
442.597	-120.15
442.803	-3.41
443.01	-30.04
443.216	-21.85
443.423	70.31
443.63	76.46
443.836	103.08
444.043	-25.94
444.249	6.83
444.456	39.59
444.662	-42.32
444.869	-5.46
445.075	84.65
445.282	37.55
445.488	-3.41
445.695	74.41
445.901	31.4
446.107	41.64
446.314	107.18
446.52	45.74
446.727	-5.46
446.933	-11.61
447.139	10.92
447.346	53.93
447.552	0.68
447.759	43.69
447.965	37.55
448.171	29.35
448.378	10.92
448.584	-23.89
448.79	45.74
448.996	-40.28
449.203	4.78
449.409	-50.52
449.615	-5.46
449.821	96.94
450.028	84.65
450.234	111.27
450.44	39.59
450.646	2.73
450.852	125.61
451.059	49.83
451.265	-1.37
451.471	62.12
451.677	-66.9
451.883	43.69
452.089	-73.04
452.295	-34.13
452.502	33.45
452.708	37.55
452.914	17.07
453.12	-17.75
453.326	88.75
453.532	-1.37
453.738	-56.66
453.944	45.74
454.15	12.97
454.356	8.87
454.562	51.88
454.768	31.4
454.974	146.09
455.18	37.55
455.386	82.6
455.592	60.07
455.798	-23.89
456.003	15.02
456.209	47.79
456.415	-11.61
456.621	125.61
456.827	-44.37
457.033	6.83
457.239	-60.76
457.444	35.5
457.65	-32.08
457.856	8.87
458.062	109.23
458.268	-44.37
458.473	37.55
458.679	19.11
458.885	-46.42
459.091	-5.46
459.296	21.16
459.502	-36.18
459.708	41.64
459.914	47.79
460.119	2.73
460.325	-77.14
460.531	10.92
460.736	19.11
460.942	105.13
461.147	-34.13
461.353	23.21
461.559	0.68
461.764	82.6
461.97	-79.19
462.175	4.78
462.381	94.89
462.587	31.4
462.792	-48.47
462.998	82.6
463.203	-11.61
463.409	21.16
463.614	6.83
463.82	121.51
464.025	37.55
464.231	-71
464.436	41.64
464.641	119.46
464.847	-7.51
465.052	94.89
465.258	66.22
465.463	53.93
465.669	-9.56
465.874	-50.52
466.079	-38.23
466.285	10.92
466.49	27.31
466.695	-32.08
466.901	70.31
467.106	45.74
467.311	12.97
467.516	4.78
467.722	-58.71
467.927	64.17
468.132	123.56
468.338	-9.56
468.543	45.74
468.748	2.73
468.953	-73.04
469.158	74.41
469.364	64.17
469.569	117.42
469.774	-38.23
469.979	12.97
470.184	47.79
470.389	35.5
470.594	55.98
470.8	45.74
471.005	-23.89
471.21	152.23
471.415	47.79
471.62	76.46
471.825	35.5
472.03	2.73
472.235	148.14
472.44	148.14
472.645	82.6
472.85	29.35
473.055	101.03
473.26	6.83
473.465	68.27
473.67	43.69
473.875	41.64
474.08	164.52
474.285	58.03
474.49	-46.42
474.695	74.41
474.899	90.79
475.104	70.31
475.309	74.41
475.514	-3.41
475.719	199.34
475.924	68.27
476.128	101.03
476.333	78.51
476.538	182.95
476.743	139.94
476.948	98.99
477.152	125.61
477.357	146.09
477.562	35.5
477.767	113.32
477.971	76.46
478.176	144.04
478.381	-15.7
478.585	58.03
478.79	37.55
478.995	64.17
479.199	72.36
479.404	141.99
479.609	64.17
479.813	53.93
480.018	90.79
480.223	180.9
480.427	139.94
480.632	232.1
480.836	236.2
481.041	670.37
481.245	289.45
481.45	244.39
481.654	55.98
481.859	96.94
482.063	225.96
482.268	273.06
482.472	408.23
482.677	248.49
482.881	250.53
483.086	182.95
483.29	107.18
483.495	234.15
483.699	246.44
483.903	363.17
484.108	201.38
484.312	295.59
484.517	559.78
484.721	262.82
484.925	273.06
485.13	475.81
485.334	254.63
485.538	285.35
485.743	219.82
485.947	223.91
486.151	334.5
486.355	354.98
486.56	256.68
486.764	293.54
486.968	178.86
487.172	244.39
487.377	271.01
487.581	309.93
487.785	86.7
487.989	488.1
488.193	457.38
488.397	701.09
488.602	504.48
488.806	625.31
489.01	293.54
489.214	354.98
489.418	230.06
489.622	570.02
489.826	213.67
490.03	289.45
490.234	391.84
490.438	228.01
490.642	303.78
490.846	268.97
491.05	154.28
491.254	336.55
491.458	176.81
491.662	434.85
491.866	232.1
492.07	285.35
492.274	189.1
492.478	369.32
492.682	94.89
492.886	301.73
493.09	291.49
493.294	248.49
493.498	127.66
493.701	336.55
493.905	279.21
494.109	309.93
494.313	314.02
494.517	371.37
494.721	197.29
494.924	117.42
495.128	279.21
495.332	455.33
495.536	189.1
495.739	320.17
495.943	193.19
496.147	330.41
496.351	162.47
496.554	541.35
496.758	203.43
496.962	162.47
497.165	187.05
497.369	236.2
497.573	174.76
497.776	465.57
497.98	238.25
498.184	303.78
498.387	436.9
498.591	367.27
498.794	354.98
498.998	258.73
499.202	223.91
499.405	260.77
499.609	193.19
499.812	266.92
500.016	60.07
500.219	371.37
500.423	133.8
500.626	535.2
500.83	479.91
501.033	625.31
501.237	236.2
501.44	615.07
501.643	457.38
501.847	674.46
502.05	262.82
502.254	549.54
502.457	383.65
502.66	387.75
502.864	154.28
503.067	277.16
503.271	150.18
503.474	176.81
503.677	148.14
503.88	338.6
504.084	211.62
504.287	209.58
504.49	217.77
504.694	236.2
504.897	178.86
505.1	359.08
505.303	397.99
505.507	932.51
505.71	463.52
505.913	527.01
506.116	164.52
506.319	400.04
506.522	490.15
506.726	318.12
506.929	422.56
507.132	842.4
507.335	162.47
507.538	268.97
507.741	371.37
507.944	64.17
508.147	207.53
508.35	465.57
508.553	121.51
508.756	338.6
508.959	127.66
509.163	240.3
509.366	193.19
509.569	262.82
509.771	109.23
509.974	232.1
510.177	258.73
510.38	311.97
510.583	215.72
510.786	271.01
510.989	336.55
511.192	389.8
511.395	162.47
511.598	146.09
511.801	80.55
512.004	357.03
512.206	150.18
512.409	330.41
512.612	217.77
512.815	375.46
513.018	182.95
513.22	320.17
513.423	156.33
513.626	266.92
513.829	189.1
514.032	363.17
514.234	201.38
514.437	361.13
514.64	191.14
514.842	287.4
515.045	154.28
515.248	334.5
515.45	139.94
515.653	213.67
515.856	219.82
516.058	197.29
516.261	307.88
516.464	10.92
516.666	10.92
516.869	484
517.071	158.38
517.274	383.65
517.477	115.37
517.679	363.17
517.882	172.71
518.084	291.49
518.287	228.01
518.489	391.84
518.692	475.81
518.894	334.5
519.097	488.1
519.299	76.46
519.501	221.86
519.704	348.84
519.906	197.29
520.109	543.39
520.311	117.42
520.514	469.67
520.716	328.36
520.918	250.53
521.121	281.25
521.323	512.67
521.525	125.61
521.728	461.48
521.93	174.76
522.132	432.8
522.335	875.17
522.537	871.07
522.739	105.13
522.941	410.28
523.144	258.73
523.346	287.4
523.548	316.07
523.75	129.7
523.952	203.43
524.155	201.38
524.357	15.02
524.559	172.71
524.761	119.46
524.963	264.87
525.165	119.46
525.368	271.01
525.57	197.29
525.772	283.3
525.974	66.22
526.176	295.59
526.378	119.46
526.58	275.11
526.782	127.66
526.984	182.95
527.186	43.69
527.388	213.67
527.59	6.83
527.792	334.5
527.994	105.13
528.196	275.11
528.398	98.99
528.6	103.08
528.802	35.5
529.004	62.12
529.206	58.03
529.408	361.13
529.609	133.8
529.811	246.44
530.013	148.14
530.215	135.85
530.417	187.05
530.619	258.73
530.821	219.82
531.022	260.77
531.224	64.17
531.426	363.17
531.628	176.81
531.829	199.34
532.031	43.69
532.233	160.42
532.435	72.36
532.636	150.18
532.838	84.65
533.04	219.82
533.241	96.94
533.443	156.33
533.645	285.35
533.846	47.79
534.048	96.94
534.25	90.79
534.451	58.03
534.653	180.9
534.855	111.27
535.056	49.83
535.258	0.68
535.459	105.13
535.661	131.75
535.862	191.14
536.064	23.21
536.265	148.14
536.467	27.31
536.668	60.07
536.87	160.42
537.071	182.95
537.273	135.85
537.474	160.42
537.676	174.76
537.877	197.29
538.078	17.07
538.28	31.4
538.481	133.8
538.683	174.76
538.884	27.31
539.085	37.55
539.287	201.38
539.488	72.36
539.689	58.03
539.891	221.86
540.092	37.55
540.293	191.14
540.495	162.47
540.696	121.51
540.897	131.75
541.098	31.4
541.3	123.56
541.501	203.43
541.702	160.42
541.903	164.52
542.104	17.07
542.306	66.22
542.507	178.86
542.708	121.51
542.909	141.99
543.11	119.46
543.311	-7.51
543.512	121.51
543.713	70.31
543.915	125.61
544.116	-1.37
544.317	236.2
544.518	82.6
544.719	86.7
544.92	182.95
545.121	58.03
545.322	185
545.523	240.3
545.724	160.42
545.925	232.1
546.126	8.87
546.327	273.06
546.528	53.93
546.729	-25.94
546.929	119.46
547.13	107.18
547.331	109.22
547.532	66.22
547.733	78.51
547.934	174.76
548.135	12.97
548.336	131.75
548.536	35.5
548.737	158.38
548.938	225.96
549.139	86.7
549.34	78.51
549.54	164.52
549.741	113.32
549.942	279.21
550.143	-9.56
550.343	133.8
550.544	23.21
550.745	180.9
550.945	-32.08
551.146	-40.28
551.347	66.22
551.547	55.98
551.748	6.83
551.949	64.17
552.149	53.93
552.35	172.71
552.551	72.36
552.751	131.75
552.952	47.79
553.152	90.79
553.353	283.3
553.553	2.73
553.754	127.66
553.954	53.93
554.155	17.07
554.356	150.18
554.556	21.16
554.756	129.7
554.957	113.32
555.157	64.17
555.358	43.69
555.558	-21.85
555.759	119.46
555.959	60.07
556.159	113.32
556.36	172.71
556.56	41.64
556.761	318.12
556.961	68.27
557.161	264.87
557.362	15.02
557.562	275.11
557.762	74.41
557.963	29.35
558.163	160.42
558.363	2.73
558.563	195.24
558.764	86.7
558.964	92.84
559.164	207.53
559.364	53.93
559.565	328.36
559.765	49.83
559.965	105.13
560.165	121.51
560.365	152.23
560.565	232.1
560.766	105.13
560.966	137.9
561.166	117.42
561.366	187.05
561.566	113.32
561.766	94.89
561.966	246.44
562.166	-34.13
562.366	217.77
562.566	129.7
562.766	160.42
562.966	201.38
563.166	-30.04
563.366	215.72
563.566	74.41
563.766	256.68
563.966	238.25
564.166	-32.08
564.366	316.07
564.566	17.07
564.766	205.48
564.966	72.36
565.166	205.48
565.366	-30.04
565.565	117.42
565.765	37.55
565.965	-54.61
566.165	107.18
566.365	88.75
566.565	148.14
566.764	172.71
566.964	-36.18
567.164	342.69
567.364	78.51
567.564	215.72
567.763	141.99
567.963	78.51
568.163	86.7
568.362	232.1
568.562	84.65
568.762	-7.51
568.961	98.99
569.161	107.18
569.361	60.07
569.56	121.51
569.76	-30.04
569.96	242.34
570.159	47.79
570.359	137.9
570.558	62.12
570.758	115.37
570.958	148.14
571.157	60.07
571.357	166.57
571.556	109.22
571.756	205.48
571.955	-44.37
572.155	70.31
572.354	166.57
572.554	51.88
572.753	82.6
572.953	94.89
573.152	105.13
573.351	119.46
573.551	371.37
573.75	45.74
573.95	111.27
574.149	23.21
574.348	19.11
574.548	137.9
574.747	25.26
574.946	45.74
575.146	158.38
575.345	64.17
575.544	8.87
575.744	58.03
575.943	33.45
576.142	58.03
576.342	107.18
576.541	51.88
576.74	64.17
576.939	-21.85
577.138	96.94
577.338	113.32
577.537	-30.04
577.736	51.88
577.935	98.99
578.134	90.79
578.333	115.37
578.533	123.56
578.732	84.65
578.931	68.27
579.13	88.75
579.329	45.74
579.528	60.07
579.727	103.08
579.926	135.85
580.125	58.03
580.324	78.51
580.523	78.51
580.722	21.16
580.921	31.4
581.12	45.74
581.319	82.6
581.518	33.45
581.717	45.74
581.916	6.83
582.115	-9.56
582.314	58.03
582.513	-30.04
582.712	127.66
582.911	-7.51
583.109	144.04
583.308	-1.37
583.507	125.61
583.706	-58.71
583.905	131.75
584.104	58.03
584.302	53.93
584.501	55.98
584.7	43.69
584.899	33.45
585.098	4.78
585.296	127.66
585.495	-1.37
585.694	37.55
585.892	-9.56
586.091	37.55
586.29	-77.14
586.488	139.94
586.687	131.75
586.886	10.92
587.084	94.89
587.283	139.94
587.482	160.42
587.68	68.27
587.879	156.33
588.077	105.13
588.276	424.61
588.475	236.2
588.673	375.46
588.872	471.72
589.07	393.89
589.269	103.08
589.467	131.75
589.666	88.75
589.864	8.87
590.063	17.07
590.261	-50.52
590.46	123.56
590.658	47.79
590.857	45.74
591.055	-56.66
591.253	131.75
591.452	82.6
591.65	162.47
591.848	-7.51
592.047	23.21
592.245	166.57
592.444	-11.61
592.642	21.16
592.84	109.23
593.038	25.26
593.237	27.31
593.435	103.08
593.633	66.22
593.832	-56.66
594.03	242.34
594.228	101.03
594.426	10.92
594.624	0.68
594.823	45.74
595.021	92.84
595.219	90.79
595.417	-25.94
595.615	76.46
595.813	74.41
596.012	-46.42
596.21	45.74
596.408	31.4
596.606	98.99
596.804	37.55
597.002	74.41
597.2	-1.37
597.398	64.17
597.596	-17.75
597.794	29.35
597.992	47.79
598.19	74.41
598.388	15.02
598.586	127.66
598.784	-44.37
598.982	96.94
599.18	70.31
599.378	107.18
599.576	-19.8
599.774	66.22
599.972	23.21
600.17	27.31
600.368	146.09
600.565	127.66
600.763	88.75
600.961	-25.94
601.159	88.75
601.357	31.4
601.555	125.61
601.752	117.42
601.95	29.35
602.148	-23.89
602.346	86.7
602.544	152.23
602.741	78.51
602.939	189.1
603.137	109.23
603.334	88.75
603.532	-11.61
603.73	244.39
603.927	-3.41
604.125	189.1
604.323	-5.46
604.52	264.87
604.718	39.59
604.916	180.9
605.113	17.07
605.311	160.42
605.508	88.75
605.706	111.27
605.904	45.74
606.101	248.49
606.299	117.42
606.496	76.46
606.694	-3.41
606.891	144.04
607.089	72.36
607.286	68.27
607.484	51.88
607.681	12.97
607.879	62.12
608.076	-5.46
608.273	58.03
608.471	47.79
608.668	86.7
608.866	88.75
609.063	41.64
609.26	-23.89
609.458	109.23
609.655	29.35
609.852	15.02
610.05	133.8
610.247	-17.75
610.444	98.99
610.642	51.88
610.839	10.92
611.036	109.23
611.233	74.41
611.431	103.08
611.628	31.4
611.825	35.5
612.022	72.36
612.22	68.27
612.417	23.21
612.614	39.59
612.811	105.13
613.008	-17.75
613.205	53.93
613.402	-32.08
613.6	94.89
613.797	-21.85
613.994	0.68
614.191	21.16
614.388	19.11
614.585	-9.56
614.782	49.83
614.979	88.75
615.176	-21.85
615.373	-13.65
615.57	55.98
615.767	-44.37
615.964	-46.42
616.161	-101.72
616.358	55.98
616.555	19.11
616.752	8.87
616.949	-13.65
617.146	-13.65
617.343	33.45
617.539	19.11
617.736	-36.18
617.933	60.07
618.13	51.88
618.327	76.46
618.524	58.03
618.721	37.55
618.917	117.42
619.114	21.16
619.311	41.64
619.508	84.65
619.704	29.35
619.901	-21.85
620.098	-9.56
620.295	2.73
620.491	17.07
620.688	86.7
620.885	-38.23
621.081	60.07
621.278	-15.7
621.475	-5.46
621.671	33.45
621.868	-58.71
622.065	105.13
622.261	-7.51
622.458	53.93
622.655	-1.37
622.851	6.83
623.048	17.07
623.244	43.69
623.441	31.4
623.637	-134.48
623.834	-52.56
624.03	-23.89
624.227	82.6
624.423	-19.8
624.62	15.02
624.816	-15.7
625.013	12.97
625.209	-7.51
625.406	47.79
625.602	41.64
625.798	-25.94
625.995	154.28
626.191	-11.61
626.388	-50.52
626.584	74.41
626.78	49.83
626.977	-11.61
627.173	25.26
627.369	-34.13
627.566	127.66
627.762	47.79
627.958	78.51
628.154	8.87
628.351	8.87
628.547	82.6
628.743	12.97
628.939	94.89
629.136	2.73
629.332	-48.47
629.528	127.66
629.724	-32.08
629.92	-15.7
630.116	62.12
630.313	33.45
630.509	8.87
630.705	66.22
630.901	-32.08
631.097	55.98
631.293	-27.99
631.489	76.46
631.685	-17.75
631.881	60.07
632.077	103.08
632.273	82.6
632.469	-23.89
632.665	109.22
632.861	66.22
633.057	90.79
633.253	25.26
633.449	6.83
633.645	15.02
633.841	41.64
634.037	6.83
634.233	117.42
634.429	-46.42
634.625	39.59
634.821	-62.8
635.017	105.13
635.212	0.68
635.408	33.45
635.604	47.79
635.8	62.12
635.996	-30.04
636.191	-75.09
636.387	-71
636.583	-23.89
636.779	-32.08
636.975	-13.65
637.17	27.31
637.366	62.12
637.562	-52.56
637.757	-5.46
637.953	-64.85
638.149	41.64
638.345	62.12
638.54	-19.8
638.736	-30.04
638.931	43.69
639.127	33.45
639.323	12.97
639.518	-3.41
639.714	58.03
639.909	-73.04
640.105	-21.85
640.301	72.36
640.496	-36.18
640.692	-15.7
640.887	31.4
641.083	-7.51
641.278	0.68
641.474	35.5
641.669	98.99
641.865	-40.28
642.06	17.07
642.256	-93.52
642.451	8.87
642.646	-34.13
642.842	-81.24
643.037	-3.41
643.233	21.16
643.428	6.83
643.623	-50.52
643.819	-93.52
644.014	-19.8
644.209	64.17
644.405	4.78
644.6	66.22
644.795	55.98
644.99	-101.72
645.186	23.21
645.381	4.78
645.576	-56.66
645.771	8.87
645.967	101.03
646.162	-91.48
646.357	-30.04
646.552	15.02
646.747	47.79
646.943	12.97
647.138	15.02
647.333	25.26
647.528	49.83
647.723	19.11
647.918	94.89
648.113	74.41
648.308	4.78
648.504	-46.42
648.699	41.64
648.894	-46.42
649.089	113.32
649.284	-1.37
649.479	-23.89
649.674	-21.84
649.869	96.94
650.064	39.59
650.259	31.4
650.454	2.73
650.649	170.66
650.844	123.56
651.038	90.79
651.233	-40.28
651.428	19.11
651.623	25.26
651.818	17.07
652.013	80.55
652.208	-7.51
652.403	55.98
652.597	121.51
652.792	-9.56
652.987	51.88
653.182	15.02
653.377	12.97
653.571	-30.04
653.766	25.26
653.961	12.97
654.156	133.8
654.35	39.59
654.545	19.11
654.74	37.55
654.935	-30.04
655.129	49.83
655.324	74.41
655.519	-54.61
655.713	53.93
655.908	-44.37
656.102	66.22
656.297	-27.99
656.492	-13.65
656.686	-77.14
656.881	-32.08
657.075	62.12
657.27	105.13
657.464	101.03
657.659	23.21
657.854	94.89
658.048	-9.56
658.243	103.08
658.437	15.02
658.631	2.73
658.826	-23.89
659.02	51.88
659.215	47.79
659.409	-23.89
659.604	12.97
659.798	10.92
659.992	53.93
660.187	0.68
660.381	-9.56
660.576	-38.23
660.77	-44.37
660.964	31.4
661.159	45.74
661.353	-60.76
661.547	-36.18
661.742	27.31
661.936	41.64
662.13	12.97
662.324	76.46
662.519	68.27
662.713	-27.99
662.907	-48.47
663.101	33.45
663.295	-34.13
663.49	101.03
663.684	80.55
663.878	55.98
664.072	21.16
664.266	-3.41
664.46	2.73
664.654	12.97
664.849	-40.28
665.043	2.73
665.237	10.92
665.431	98.99
665.625	19.11
665.819	-62.8
666.013	60.07
666.207	-21.85
666.401	10.92
666.595	-81.24
666.789	43.69
666.983	12.97
667.177	43.69
667.371	6.83
667.565	-15.7
667.759	-21.85
667.953	25.26
668.147	-50.52
668.34	64.17
668.534	-21.85
668.728	25.26
668.922	35.5
669.116	-79.19
669.31	17.07
669.504	47.79
669.697	74.41
669.891	-13.65
670.085	47.79
670.279	131.75
670.473	-38.23
670.666	12.97
670.86	-11.61
671.054	-81.24
671.248	-30.04
671.441	-30.04
671.635	-46.42
671.829	-30.04
672.022	-21.85
672.216	-17.75
672.41	-58.71
672.603	2.73
672.797	-9.56
672.99	-60.76
673.184	6.83
673.378	-85.33
673.571	-15.7
673.765	0.68
673.958	49.83
674.152	58.03
674.345	125.61
674.539	-44.37
674.733	-101.72
674.926	35.5
675.12	-75.09
675.313	70.31
675.506	-34.13
675.7	6.83
675.893	76.46
676.087	55.98
676.28	68.27
676.474	-64.85
676.667	103.08
676.86	31.4
677.054	47.79
677.247	-52.56
677.441	-27.99
677.634	-75.09
677.827	-56.66
678.02	-40.28
678.214	-71
678.407	-17.75
678.6	47.79
678.794	37.55
678.987	-40.28
679.18	23.21
679.373	-50.52
679.567	6.83
679.76	123.56
679.953	70.31
680.146	-3.41
680.339	-30.04
680.533	-48.47
680.726	78.51
680.919	-25.94
681.112	-17.75
681.305	-77.14
681.498	-44.37
681.691	15.02
681.884	70.31
682.077	60.07
682.271	-60.76
682.464	107.18
682.657	-134.48
682.85	-1.37
683.043	37.55
683.236	-50.52
683.429	17.07
683.622	37.55
683.815	-71
684.008	-3.41
684.201	60.07
684.393	55.98
684.586	-9.56
684.779	19.11
684.972	15.02
685.165	-56.66
685.358	49.83
685.551	-79.19
685.744	-19.8
685.937	2.73
686.129	-17.75
686.322	76.46
686.515	8.87
686.708	68.27
686.901	-9.56
687.093	-11.61
687.286	82.6
687.479	29.35
687.672	-71
687.864	-62.8
688.057	-75.09
688.25	4.78
688.442	19.11
688.635	51.88
688.828	-40.28
689.02	121.51
689.213	-44.37
689.406	-120.15
689.598	-27.99
689.791	25.26
689.984	-38.23
690.176	33.45
690.369	68.27
690.561	82.6
690.754	-91.48
690.946	80.55
691.139	39.59
691.331	6.83
691.524	92.84
691.716	-34.13
691.909	29.35
692.101	-21.85
692.294	31.4
692.486	-9.56
692.679	2.73
692.871	47.79
693.063	12.97
693.256	-11.61
693.448	-48.47
693.641	-60.76
693.833	53.93
694.025	62.12
694.218	-1.37
694.41	107.18
694.602	41.64
694.795	84.65
694.987	6.83
695.179	1237.66
695.372	9046.56
695.564	20818.28
695.756	17060.26
695.948	11930.1
696.14	8583.72
696.333	3777.14
696.525	3168.89
696.717	545.44
696.909	428.71
697.101	72.36
697.294	-68.95
697.486	39.59
697.678	-1.37
697.87	-97.62
698.062	-42.32
698.254	39.59
698.446	0.68
698.638	-25.94
698.83	-54.61
699.022	90.79
699.215	41.64
699.407	139.94
699.599	-1.37
699.791	53.93
699.983	43.69
700.175	-23.89
700.367	88.75
700.558	-19.8
700.75	15.02
700.942	-81.24
701.134	49.83
701.326	4.78
701.518	19.11
701.71	4.78
701.902	0.68
702.094	92.84
702.286	21.16
702.477	0.68
702.669	8.87
702.861	72.36
703.053	31.4
703.245	39.59
703.436	6.83
703.628	80.55
703.82	21.16
704.012	96.94
704.203	-50.52
704.395	-91.48
704.587	101.03
704.779	98.99
704.97	-9.56
705.162	129.7
705.354	1669.78
705.545	8604.2
705.737	14193.11
705.929	16484.78
706.12	11612.67
706.312	6693.44
706.503	5274.2
706.695	1391.25
706.887	1417.88
707.078	256.68
707.27	78.51
707.461	51.88
707.653	-54.61
707.844	84.65
708.036	-17.75
708.227	29.35
708.419	-7.51
708.61	8.87
708.802	47.79
708.993	0.68
709.185	25.26
709.376	4.78
709.567	-19.8
709.759	-17.75
709.95	-30.04
710.141	-38.23
710.333	-40.28
710.524	19.11
710.716	-15.7
710.907	47.79
711.098	53.93
711.289	17.07
711.481	15.02
711.672	-79.19
711.863	-13.65
712.055	-11.61
712.246	8.87
712.437	51.88
712.628	41.64
712.82	-64.85
713.011	33.45
713.202	45.74
713.393	64.17
713.584	-15.7
713.775	51.88
713.967	-5.46
714.158	23.21
714.349	-73.04
714.54	-1.37
714.731	88.75
714.922	2.73
715.113	-13.65
715.304	51.88
715.495	-23.89
715.686	23.21
715.877	-50.52
716.068	-34.13
716.259	88.75
716.45	66.22
716.641	-85.33
716.832	17.07
717.023	2.73
717.214	-27.99
717.405	53.93
717.596	-27.99
717.787	21.16
717.978	23.21
718.169	27.31
718.36	-46.42
718.55	37.55
718.741	27.31
718.932	-5.46
719.123	-30.04
719.314	76.46
719.505	-101.72
719.695	66.22
719.886	2.73
720.077	58.03
720.268	2.73
720.458	98.99
720.649	-34.13
720.84	8.87
721.031	-44.37
721.221	17.07
721.412	-114
721.603	105.13
721.793	2.73
721.984	17.07
722.175	41.64
722.365	-48.47
722.556	8.87
722.746	-38.23
722.937	27.31
723.128	-54.61
723.318	-7.51
723.509	60.07
723.699	4.78
723.89	88.75
724.08	-42.32
724.271	123.56
724.461	15.02
724.652	15.02
724.842	-19.8
725.033	-11.61
725.223	31.4
725.414	84.65
725.604	-19.8
725.794	-103.76
725.985	15.02
726.175	148.14
726.366	170.66
726.556	109.23
726.746	144.04
726.937	-27.99
727.127	-68.95
727.317	31.4
727.508	-44.37
727.698	53.93
727.888	-1.37
728.079	-71
728.269	-103.76
728.459	68.27
728.649	-81.24
728.84	-73.04
729.03	-21.85
729.22	47.79
729.41	90.79
729.6	-1.37
729.791	-66.9
729.981	35.5
730.171	-23.89
730.361	-48.47
730.551	133.8
730.741	8.87
730.931	4.78
731.121	-71
731.311	23.21
731.502	-7.51
731.692	-5.46
731.882	60.07
732.072	6.83
732.262	-95.57
732.452	33.45
732.642	-48.47
732.832	119.46
733.022	-27.99
733.212	23.21
733.402	-11.61
733.591	12.97
733.781	-56.66
733.971	37.55
734.161	62.12
734.351	6.83
734.541	-50.52
734.731	-38.23
734.921	-60.76
735.111	8.87
735.3	96.94
735.49	-66.9
735.68	90.79
735.87	-25.94
736.06	33.45
736.249	21.16
736.439	115.37
736.629	82.6
736.819	199.34
737.008	3218.04
737.198	8731.17
737.388	25053.48
737.577	30216.41
737.767	18440.59
737.957	17705.37
738.146	12190.19
738.336	6183.5
738.526	6056.53
738.715	2429.57
738.905	1165.98
739.094	936.6
739.284	178.86
739.474	78.51
739.663	17.07
739.853	80.55
740.042	51.88
740.232	51.88
740.421	41.64
740.611	29.35
740.8	78.51
740.99	115.37
741.179	-34.13
741.369	29.35
741.558	39.59
741.748	-1.37
741.937	-73.04
742.126	51.88
742.316	35.5
742.505	-25.94
742.695	-25.94
742.884	35.5
743.073	-9.56
743.263	-36.18
743.452	35.5
743.641	107.18
743.831	-36.18
744.02	-5.46
744.209	141.99
744.398	131.75
744.588	35.5
744.777	-44.37
744.966	70.31
745.155	94.89
745.345	174.76
745.534	-5.46
745.723	139.94
745.912	4.78
746.101	64.17
746.29	74.41
746.48	27.31
746.669	53.93
746.858	39.59
747.047	-9.56
747.236	41.64
747.425	58.03
747.614	-36.18
747.803	49.83
747.992	17.07
748.181	82.6
748.37	-81.24
748.559	55.98
748.748	-48.47
748.937	49.83
749.126	2181.77
749.315	5968.46
749.504	12798.44
749.693	21336.42
749.882	17490.34
750.071	13955.54
750.26	19691.9
750.449	20048.25
750.638	28279.04
750.826	30779.6
751.015	21512.55
751.204	16189.88
751.393	14651.85
751.582	7651.89
751.771	6324.81
751.959	4133.48
752.148	1968.78
752.337	1206.94
752.526	504.48
752.714	96.94
752.903	25.26
753.092	-5.46
753.281	-42.32
753.469	-19.8
753.658	107.18
753.847	41.64
754.035	43.69
754.224	19.11
754.413	62.12
754.601	-83.28
754.79	-13.65
754.979	-38.23
755.167	-30.04
755.356	58.03
755.544	101.03
755.733	31.4
755.921	-60.76
756.11	-13.65
756.298	-46.42
756.487	0.68
756.675	-21.84
756.864	-58.71
757.052	-7.51
757.241	47.79
757.429	98.99
757.618	-62.8
757.806	62.12
757.995	64.17
758.183	47.79
758.371	60.07
758.56	-15.7
758.748	86.7
758.937	39.59
759.125	-77.14
759.313	-9.56
759.502	23.21
759.69	49.83
759.878	0.68
760.066	86.7
760.255	15.02
760.443	-34.13
760.631	21.16
760.819	-89.43
761.008	-17.75
761.196	-23.89
761.384	45.74
761.572	53.93
761.761	230.06
761.949	2429.57
762.137	3351.16
762.325	14901.7
762.513	30181.6
762.701	40992.83
762.889	49794.99
763.077	49835.95
763.266	32663.74
763.454	29186.29
763.642	23779.65
763.83	15385.02
764.018	12179.95
764.206	10306.06
764.394	5358.17
764.582	4534.89
764.77	2282.12
764.958	469.67
765.146	248.49
765.334	262.82
765.522	2.73
765.71	-23.89
765.898	43.69
766.085	123.56
766.273	17.07
766.461	-99.67
766.649	-81.24
766.837	-21.84
767.025	74.41
767.213	0.68
767.401	-52.56
767.588	70.31
767.776	33.45
767.964	68.27
768.152	-42.32
768.339	-38.23
768.527	53.93
768.715	-52.56
768.903	19.11
769.09	-1.37
769.278	45.74
769.466	-15.7
769.654	25.26
769.841	-46.42
770.029	-38.23
770.217	-21.85
770.404	8.87
770.592	45.74
770.779	-105.81
770.967	49.83
771.155	78.51
771.342	3687.03
771.53	15479.23
771.717	22825.29
771.905	14823.88
772.092	15370.69
772.28	11526.65
772.467	6748.74
772.655	3861.1
772.842	2968.19
773.03	486.05
773.217	250.53
773.405	29.35
773.592	-13.65
773.78	0.68
773.967	-25.94
774.154	82.6
774.342	-7.51
774.529	15.02
774.717	-73.04
774.904	41.64
775.091	31.4
775.279	49.83
775.466	33.45
775.653	-7.51
775.841	31.4
776.028	-83.28
776.215	-1.37
776.402	62.12
776.59	74.41
776.777	8.87
776.964	131.75
777.151	94.89
777.338	62.12
777.526	2.73
777.713	-7.51
777.9	66.22
778.087	55.98
778.274	4.78
778.461	-27.99
778.649	45.74
778.836	62.12
779.023	17.07
779.21	-21.85
779.397	41.64
779.584	51.88
779.771	-21.85
779.958	0.68
780.145	17.07
780.332	-11.61
780.519	-23.89
780.706	-40.28
780.893	76.46
781.08	4.78
781.267	101.03
781.454	45.74
781.641	-30.04
781.828	-19.8
782.015	133.8
782.202	-9.56
782.388	119.46
782.575	-42.32
782.762	2.73
782.949	21.16
783.136	41.64
783.323	6.83
783.509	25.26
783.696	74.41
783.883	33.45
784.07	117.42
784.257	-32.08
784.443	-30.04
784.63	-36.18
784.817	27.31
785.004	62.12
785.19	45.74
785.377	64.17
785.564	82.6
785.75	78.51
785.937	-48.47
786.124	-11.61
786.31	-36.18
786.497	82.6
786.683	-38.23
786.87	78.51
787.057	2.73
787.243	47.79
787.43	-19.8
787.616	17.07
787.803	15.02
787.989	17.07
788.176	4.78
788.362	0.68
788.549	-60.76
788.735	174.76
788.922	-52.56
789.108	55.98
789.295	49.83
789.481	43.69
789.668	64.17
789.854	49.83
790.04	-25.94
790.227	62.12
790.413	37.55
790.599	105.13
790.786	60.07
790.972	-34.13
791.158	162.47
791.345	60.07
791.531	-34.13
791.717	31.4
791.904	6.83
792.09	-38.23
792.276	82.6
792.462	-5.46
792.649	-38.23
792.835	15.02
793.021	62.12
793.207	-40.28
793.393	-23.89
793.58	0.68
793.766	187.05
793.952	3326.58
794.138	10375.69
794.324	14989.77
794.51	16898.47
794.696	11485.69
794.882	7543.35
795.069	5556.82
795.255	4455.01
795.441	879.26
795.627	764.58
795.813	31.4
795.999	189.1
796.185	76.46
796.371	-19.8
796.557	31.4
796.743	43.69
796.929	68.27
797.115	-19.8
797.3	-56.66
797.486	27.31
797.672	-9.56
797.858	0.68
798.044	-38.23
798.23	82.6
798.416	74.41
798.602	-11.61
798.788	88.75
798.973	-36.18
799.159	-1.37
799.345	-25.94
799.531	58.03
799.717	150.18
799.902	385.7
800.088	5485.14
800.274	7989.81
800.46	6949.44
800.645	8417.83
800.831	17688.99
801.017	19745.15
801.202	16492.97
801.388	13521.37
801.574	11448.83
801.759	5864.02
801.945	4489.83
802.131	2810.5
802.316	1550.99
802.502	223.91
802.687	133.8
802.873	17.07
803.058	60.07
803.244	17.07
803.43	4.78
803.615	12.97
803.801	58.03
803.986	62.12
804.172	-13.65
804.357	-17.75
804.543	-50.52
804.728	-13.65
804.913	-21.85
805.099	-50.52
805.284	-17.75
805.47	12.97
805.655	-13.65
805.84	2.73
806.026	15.02
806.211	-21.85
806.397	58.03
806.582	53.93
806.767	35.5
806.953	80.55
807.138	12.97
807.323	17.07
807.508	39.59
807.694	-13.65
807.879	-132.44
808.064	39.59
808.249	-52.56
808.435	39.59
808.62	33.45
808.805	62.12
808.99	213.67
809.175	314.02
809.361	3043.96
809.546	5223
809.731	12896.74
809.916	23069
810.101	27767.04
810.286	23548.23
810.471	25434.41
810.656	29741.28
810.841	35035.28
811.026	41142.33
811.211	48560.07
811.396	49627.06
811.581	42115.11
811.766	35246.22
811.951	32497.85
812.136	26167.58
812.321	20023.67
812.506	16228.79
812.691	13703.64
812.876	9542.17
813.061	7193.15
813.246	5022.3
813.431	3431.03
813.616	998.04
813.801	752.29
813.986	201.38
814.17	107.18
814.355	29.35
814.54	86.7
814.725	-19.8
814.91	10.92
815.094	84.65
815.279	-17.75
815.464	-54.61
815.649	31.4
815.833	-44.37
816.018	25.26
816.203	33.45
816.388	-3.41
816.572	74.41
816.757	66.22
816.942	187.05
817.126	70.31
817.311	45.74
817.496	66.22
817.68	41.64
817.865	21.16
818.049	8.87
818.234	33.45
818.419	47.79
818.603	0.68
818.788	-30.04
818.972	-73.04
819.157	160.42
819.341	27.31
819.526	10.92
819.71	-25.94
819.895	78.51
820.079	-30.04
820.264	62.12
820.448	12.97
820.633	15.02
820.817	45.74
821.001	60.07
821.186	8.87
821.37	-19.8
821.554	43.69
821.739	-11.61
821.923	96.94
822.108	37.55
822.292	-56.66
822.476	-7.51
822.66	60.07
822.845	4.78
823.029	21.16
823.213	51.88
823.398	12.97
823.582	76.46
823.766	15.02
823.95	-42.32
824.134	-13.65
824.319	70.31
824.503	-38.23
824.687	19.11
824.871	-120.15
825.055	-21.85
825.239	-36.18
825.423	-46.42
825.608	53.93
825.792	10.92
825.976	508.58
826.16	3553.91
826.344	7518.78
826.528	6052.43
826.712	4954.72
826.896	1837.71
827.08	1266.33
827.264	273.06
827.448	191.14
827.632	45.74
827.816	88.75
828	-15.7
828.184	-105.81
828.368	47.79
828.552	-15.7
828.736	-25.94
828.919	66.22
829.103	15.02
829.287	-81.24
829.471	88.75
829.655	-52.56
829.839	-44.37
830.023	-64.85
830.206	-36.18
830.39	-73.04
830.574	35.5
830.758	-34.13
830.941	29.35
831.125	-27.99
831.309	-81.24
831.493	0.68
831.676	2.73
831.86	-30.04
832.044	2.73
832.227	4.78
832.411	-23.89
832.595	-1.37
832.778	58.03
832.962	-44.37
833.146	-15.7
833.329	-101.72
833.513	25.26
833.696	29.35
833.88	45.74
834.064	19.11
834.247	103.08
834.431	-34.13
834.614	-17.75
834.798	76.46
834.981	-44.37
835.165	-34.13
835.348	-36.18
835.532	35.5
835.715	133.8
835.898	17.07
836.082	-56.66
836.265	8.87
836.449	55.98
836.632	41.64
836.815	82.6
836.999	-54.61
837.182	-17.75
837.365	-81.24
837.549	-3.41
837.732	23.21
837.915	66.22
838.099	19.11
838.282	-42.32
838.465	-73.04
838.648	17.07
838.832	-7.51
839.015	23.21
839.198	-71
839.381	37.55
839.565	10.92
839.748	-21.84
839.931	39.59
840.114	12.97
840.297	598.69
840.48	3240.57
840.663	10029.59
840.847	14244.31
841.03	15227.33
841.213	12026.36
841.396	11428.35
841.579	8567.34
841.762	8456.75
841.945	7821.88
842.128	10187.28
842.311	14272.98
842.494	19073.42
842.677	18567.57
842.86	16026.04
843.043	13345.25
843.226	10517
843.409	6621.77
843.592	5243.48
843.775	2605.7
843.958	1460.88
844.141	502.43
844.323	131.75
844.506	51.88
844.689	-36.18
844.872	49.83
845.055	-36.18
845.238	-21.85
845.42	-1.37
845.603	121.51
845.786	29.35
845.969	27.31
846.152	10.92
846.334	41.64
846.517	-5.46
846.7	-36.18
846.883	64.17
847.065	60.07
847.248	-56.66
847.431	23.21
847.613	53.93
847.796	45.74
847.979	144.04
848.161	19.11
848.344	41.64
848.526	-13.65
848.709	-9.56
848.892	6.83
849.074	29.35
849.257	-142.68
849.439	-30.04
849.622	-32.08
849.804	-1.37
849.987	43.69
850.169	78.51
850.352	-62.8
850.534	-54.61
850.717	107.18
850.899	-13.65
851.082	41.64
851.264	-56.66
851.446	45.74
851.629	-5.46
851.811	80.55
851.994	117.42
852.176	162.47
852.358	2022.03
852.541	1155.74
852.723	981.66
852.905	211.62
853.088	137.9
853.27	139.94
853.452	33.45
853.635	84.65
853.817	-40.28
853.999	78.51
854.181	-54.61
854.363	62.12
854.546	29.35
854.728	12.97
854.91	-44.37
855.092	45.74
855.274	-40.28
855.457	-34.13
855.639	-48.47
855.821	131.75
856.003	33.45
856.185	43.69
856.367	6.83
856.549	19.11
856.731	-25.94
856.913	23.21
857.095	-105.81
857.277	119.46
857.459	23.21
857.641	-15.7
857.823	51.88
858.005	-38.23
858.187	-56.66
858.369	35.5
858.551	-3.41
858.733	-42.32
858.915	-52.56
859.097	35.5
859.279	21.16
859.461	-1.37
859.643	-75.09
859.824	-38.23
860.006	4.78
860.188	-9.56
860.37	51.88
860.552	-38.23
860.734	-11.61
860.915	35.5
861.097	-21.84
861.279	68.27
861.461	-21.85
861.642	49.83
861.824	-9.56
862.006	51.88
862.188	86.7
862.369	-13.65
862.551	23.21
862.733	115.37
862.914	12.97
863.096	0.68
863.278	-32.08
863.459	-13.65
863.641	94.89
863.822	-56.66
864.004	6.83
864.185	49.83
864.367	0.68
864.549	-19.8
864.73	-1.37
864.912	10.92
865.093	-46.42
865.275	-11.61
865.456	76.46
865.638	101.03
865.819	62.12
866.001	45.74
866.182	-13.65
866.363	0.68
866.545	92.84
866.726	70.31
866.908	-48.47
867.089	-46.42
867.27	-3.41
867.452	23.21
867.633	-56.66
867.814	-42.32
867.996	-5.46
868.177	105.13
868.358	-9.56
868.54	90.79
868.721	64.17
868.902	-58.71
869.083	31.4
869.265	43.69
869.446	19.11
869.627	-71
869.808	-48.47
869.989	-1.37
870.171	74.41
870.352	8.87
870.533	-17.75
870.714	4.78
870.895	62.12
871.076	27.31
871.257	19.11
871.438	21.16
871.619	-9.56
871.801	12.97
871.982	-7.51
872.163	-15.7
872.344	144.04
872.525	-19.8
872.706	12.97
872.887	74.41
873.068	10.92
873.249	8.87
873.43	-56.66
873.61	88.75
873.791	-21.85
873.972	-23.89
874.153	96.94
874.334	35.5
874.515	17.07
874.696	49.83
874.877	12.97
875.058	72.36
875.238	45.74
875.419	84.65
875.6	6.83
875.781	4.78
875.962	8.87
876.142	-25.94
876.323	-23.89
876.504	84.65
876.685	-13.65
876.865	0.68
877.046	-62.8
877.227	76.46
877.407	-21.85
877.588	84.65
877.769	49.83
877.949	15.02
878.13	10.92
878.311	68.27
878.491	19.11
878.672	-11.61
878.853	8.87
879.033	66.22
879.214	23.21
879.394	68.27
879.575	-60.76
879.755	10.92
879.936	43.69
880.116	-71
880.297	19.11
880.477	-122.2
880.658	19.11
880.838	-60.76
881.019	45.74
881.199	43.69
881.38	41.64
881.56	-42.32
881.74	6.83
881.921	-30.04
882.101	-60.76
882.281	31.4
882.462	6.83
882.642	39.59
882.822	-91.48
883.003	8.87
883.183	86.7
883.363	-58.71
883.544	19.11
883.724	51.88
883.904	49.83
884.084	-44.37
884.265	-17.75
884.445	49.83
884.625	-21.85
884.805	-13.65
884.985	12.97
885.166	37.55
885.346	15.02
885.526	-5.46
885.706	-89.43
885.886	78.51
886.066	58.03
886.246	60.07
886.426	-7.51
886.606	-15.7
886.787	49.83
886.967	25.26
887.147	101.03
887.327	-13.65
887.507	45.74
887.687	10.92
887.867	43.69
888.047	41.64
888.227	-25.94
888.406	66.22
888.586	2.73
888.766	139.94
888.946	-87.38
889.126	78.51
889.306	29.35
889.486	-83.28
889.666	47.79
889.846	88.75
890.025	45.74
890.205	43.69
890.385	6.83
890.565	10.92
890.745	19.11
890.924	43.69
891.104	-54.61
891.284	39.59
891.464	-62.8
891.643	-38.23
891.823	-75.09
892.003	-1.37
892.183	119.46
892.362	-27.99
892.542	-62.8
892.722	-64.85
892.901	-77.14
893.081	-68.95
893.26	-3.41
893.44	-89.43
893.62	-23.89
893.799	19.11
893.979	-60.76
894.158	39.59
894.338	-23.89
894.517	-5.46
894.697	19.11
894.877	21.16
895.056	-116.05
895.236	10.92
895.415	-52.56
895.594	41.64
895.774	10.92
895.953	-32.08
896.133	-50.52
896.312	10.92
896.492	55.98
896.671	0.68
896.85	-105.81
897.03	37.55
897.209	4.78
897.388	84.65
897.568	21.16
897.747	6.83
897.926	-27.99
898.106	-30.04
898.285	-9.56
898.464	78.51
898.643	6.83
898.823	37.55
899.002	121.51
899.181	90.79
899.36	25.26
899.54	-60.76
899.719	27.31
899.898	43.69
900.077	10.92
900.256	84.65
900.435	78.51
900.614	-103.76
900.794	-30.04
900.973	-73.04
901.152	-13.65
901.331	4.78
901.51	55.98
901.689	-13.65
901.868	39.59
902.047	-107.86
902.226	-46.42
902.405	-66.9
902.584	43.69
902.763	-77.14
902.942	0.68
903.121	10.92
903.3	-34.13
903.479	43.69
903.658	-32.08
903.837	-13.65
904.015	-13.65
904.194	12.97
904.373	-30.04
904.552	113.32
904.731	-62.8
904.91	33.45
905.089	29.35
905.267	-5.46
905.446	-1.37
905.625	-73.04
905.804	125.61
905.982	12.97
906.161	19.11
906.34	-101.72
906.519	94.89
906.697	-83.28
906.876	35.5
907.055	-13.65
907.233	4.78
907.412	23.21
907.591	6.83
907.769	-56.66
907.948	-15.7
908.127	41.64
908.305	-3.41
908.484	8.87
908.662	43.69
908.841	-3.41
909.019	88.75
909.198	-27.99
909.377	-27.99
909.555	55.98
909.734	135.85
909.912	21.16
910.09	17.07
910.269	21.16
910.447	-7.51
910.626	96.94
910.804	-21.84
910.983	21.16
911.161	-3.41
911.339	-32.08
911.518	-27.99
911.696	-5.46
911.875	68.27
912.053	29.35
912.231	-5.46
912.41	23.21
912.588	23.21
912.766	25.26
912.944	-36.18
913.123	-11.61
913.301	55.98
913.479	4.78
913.657	174.76
913.836	711.33
914.014	635.55
914.192	223.91
914.37	55.98
914.548	74.41
914.727	119.46
914.905	-38.23
915.083	72.36
915.261	47.79
915.439	123.56
915.617	39.59
915.795	23.21
915.973	43.69
916.151	-13.65
916.329	49.83
916.508	-85.33
916.686	4.78
916.864	-11.61
917.042	8.87
917.22	-58.71
917.398	21.16
917.575	64.17
917.753	-27.99
917.931	141.99
918.109	39.59
918.287	33.45
918.465	146.09
918.643	17.07
918.821	82.6
918.999	35.5
919.177	70.31
919.354	-73.04
919.532	41.64
919.71	-25.94
919.888	8.87
920.066	53.93
920.243	45.74
920.421	19.11
920.599	92.84
920.777	90.79
920.954	-3.41
921.132	-1.37
921.31	78.51
921.488	-75.09
921.665	-11.61
921.843	-52.56
922.021	41.64
922.198	6.83
922.376	2.73
922.553	51.88
922.731	-13.65
922.909	27.31
923.086	39.59
923.264	17.07
923.441	43.69
923.619	-34.13
923.796	27.31
923.974	0.68
924.152	-7.51
924.329	21.16
924.507	15.02
924.684	72.36
924.861	-54.61
925.039	8.87
925.216	-36.18
925.394	-56.66
925.571	-9.56
925.749	-38.23
925.926	58.03
926.103	15.02
926.281	10.92
926.458	-36.18
926.635	47.79
926.813	70.31
926.99	31.4
927.167	68.27
927.345	-83.28
927.522	-101.72
927.699	8.87
927.876	94.89
928.054	-13.65
928.231	-54.61
928.408	0.68
928.585	0.68
928.763	-19.8
928.94	-3.41
929.117	2.73
929.294	-17.75
929.471	-7.51
929.648	-5.46
929.825	144.04
930.003	80.55
930.18	76.46
930.357	-48.47
930.534	-50.52
930.711	-17.75
930.888	-19.8
931.065	-34.13
931.242	70.31
931.419	55.98
931.596	90.79
931.773	-15.7
931.95	2.73
932.127	82.6
932.304	47.79
932.481	53.93
932.658	10.92
932.835	-42.32
933.011	-1.37
933.188	-52.56
933.365	90.79
933.542	78.51
933.719	-25.94
933.896	78.51
934.073	29.35
934.249	-25.94
934.426	60.07
934.603	-79.19
934.78	121.51
934.957	25.26
935.133	43.69
935.31	0.68
935.487	76.46
935.664	10.92
935.84	27.31
936.017	-9.56
936.194	19.11
936.37	-54.61
936.547	51.88
936.724	25.26
936.9	146.09
937.077	-87.38
937.253	25.26
937.43	88.75
937.607	-9.56
937.783	88.75
937.96	-44.37
938.136	-9.56
938.313	62.12
938.489	45.74
938.666	35.5
938.842	10.92
939.019	41.64
939.195	47.79
939.372	43.69
939.548	6.83
939.725	45.74
939.901	-85.33
940.077	47.79
940.254	-95.57
940.43	-11.61
940.607	-23.89
940.783	43.69
940.959	-27.99
941.136	68.27
941.312	-17.75
941.488	33.45
941.665	-73.04
941.841	-3.41
942.017	8.87
942.193	15.02
942.37	66.22
942.546	-54.61
942.722	49.83
942.898	37.55
943.074	39.59
943.251	53.93
943.427	2.73
943.603	-68.95
943.779	45.74
943.955	68.27
944.131	-68.95
944.308	-44.37
944.484	62.12
944.66	117.42
944.836	-58.71
945.012	37.55
945.188	-73.04
945.364	55.98
945.54	68.27
945.716	-23.89
945.892	62.12
946.068	12.97
946.244	-7.51
946.42	47.79
946.596	-9.56
946.772	29.35
946.948	-66.9
947.124	-25.94
947.3	-42.32
947.475	31.4
947.651	-46.42
947.827	-62.8
948.003	37.55
948.179	-7.51
948.355	103.08
948.531	103.08
948.706	-46.42
948.882	53.93
949.058	25.26
949.234	2.73
949.409	-134.48
949.585	6.83
949.761	43.69
949.937	43.69
950.112	8.87
950.288	17.07
950.464	39.59
950.639	72.36
950.815	8.87
950.991	31.4
951.166	23.21
951.342	51.88
951.518	12.97
951.693	-17.75
951.869	43.69
952.044	76.46
952.22	-27.99
952.395	82.6
952.571	21.16
952.747	-60.76
952.922	31.4
953.098	-71
953.273	72.36
953.448	-5.46
953.624	-1.37
953.799	47.79
953.975	27.31
954.15	-5.46
954.326	31.4
954.501	80.55
954.676	-23.89
954.852	78.51
955.027	76.46
955.203	4.78
955.378	19.11
955.553	23.21
955.729	74.41
955.904	-68.95
956.079	-64.85
956.254	-46.42
956.43	55.98
956.605	45.74
956.78	-5.46
956.955	-36.18
957.131	37.55
957.306	27.31
957.481	-58.71
957.656	12.97
957.831	-91.48
958.007	72.36
958.182	84.65
958.357	-32.08
958.532	-50.52
958.707	-40.28
958.882	-7.51
959.057	-23.89
959.232	51.88
959.407	10.92
959.582	-3.41
959.757	45.74
959.932	-46.42
960.107	-3.41
960.282	49.83
960.457	-25.94
960.632	19.11
960.807	0.68
960.982	10.92
961.157	117.42
961.332	-11.61
961.507	68.27
961.682	53.93
961.857	-25.94
962.032	6.83
962.206	-48.47
962.381	-71
962.556	-11.61
962.731	49.83
962.906	29.35
963.081	-66.9
963.255	21.16
963.43	68.27
963.605	0.68
963.78	-34.13
963.954	-13.65
964.129	131.75
964.304	-95.57
964.479	-40.28
964.653	70.31
964.828	-46.42
965.003	-52.56
965.177	-5.46
965.352	-64.85
965.526	-9.56
965.701	15.02
965.876	21.16
966.05	-27.99
966.225	-5.46
966.399	-1.37
966.574	-15.7
966.748	49.83
966.923	43.69
967.098	-56.66
967.272	-1.37
967.446	-11.61
967.621	-40.28
967.795	111.27
967.97	-25.94
968.144	39.59
968.319	-64.85
968.493	2.73
968.668	-25.94
968.842	21.16
969.016	17.07
969.191	-15.7
969.365	125.61
969.539	-89.43
969.714	-13.65
969.888	45.74
970.062	-64.85
970.237	58.03
970.411	-71
970.585	76.46
970.759	-36.18
970.934	58.03
971.108	80.55
971.282	39.59
971.456	-89.43
971.63	23.21
971.805	-17.75
971.979	45.74
972.153	41.64
972.327	55.98
972.501	-7.51
972.675	8.87
972.849	47.79
973.024	-1.37
973.198	94.89
973.372	-77.14
973.546	-11.61
973.72	90.79
973.894	51.88
974.068	-9.56
974.242	-5.46
974.416	-32.08
974.59	6.83
974.764	-56.66
974.938	21.16
975.112	-58.71
975.286	10.92
975.46	-36.18
975.633	27.31
975.807	-36.18
975.981	0.68
976.155	121.51
976.329	-68.95
976.503	-21.85
976.677	-50.52
976.85	17.07
977.024	-42.32
977.198	21.16
977.372	35.5
977.546	2.73
977.719	-38.23
977.893	-56.66
978.067	-130.39
978.241	-87.38
978.414	80.55
978.588	31.4
978.762	39.59
978.935	113.32
979.109	-73.04
979.283	19.11
979.456	2.73
979.63	66.22
979.804	-3.41
979.977	49.83
980.151	-7.51
980.324	-15.7
980.498	-38.23
980.671	94.89
980.845	35.5
981.018	-27.99
981.192	31.4
981.365	-42.32
981.539	-32.08
981.712	-9.56
981.886	96.94
982.059	-21.85
982.233	-93.52
982.406	-58.71
982.58	-5.46
982.753	19.11
982.926	43.69
983.1	94.89
983.273	33.45
983.446	-32.08
983.62	-42.32
983.793	-17.75
983.966	-32.08
984.14	-13.65
984.313	66.22
984.486	98.99
984.66	33.45
984.833	-32.08
985.006	-15.7
985.179	45.74
985.352	-13.65
985.526	-42.32
985.699	43.69
985.872	17.07
986.045	60.07
986.218	21.16
986.391	84.65
986.565	-87.38
986.738	98.99
986.911	35.5
987.084	76.46
987.257	6.83
987.43	-73.04
987.603	72.36
987.776	-5.46
987.949	55.98
988.122	-32.08
988.295	-11.61
988.468	-50.52
988.641	-7.51
988.814	107.18
988.987	-66.9
989.16	2.73
989.333	-15.7
989.506	-32.08
989.679	-95.57
989.852	-5.46
990.025	60.07
990.197	47.79
990.37	23.21
990.543	31.4
990.716	82.6
990.889	-40.28
991.062	76.46
991.234	-87.38
991.407	31.4
991.58	135.85
991.753	-64.85
991.925	72.36
992.098	8.87
992.271	66.22
992.444	-13.65
992.616	51.88
992.789	-52.56
992.962	-34.13
993.134	-58.71
993.307	-21.85
993.479	47.79
993.652	-52.56
993.825	4.78
993.997	17.07
994.17	41.64
994.342	21.16
994.515	123.56
994.688	10.92
994.86	-136.53
995.033	15.02
995.205	72.36
995.378	10.92
995.55	103.08
995.723	82.6
995.895	-32.08
996.067	12.97
996.24	-44.37
996.412	84.65
996.585	8.87
996.757	33.45
996.929	-27.99
997.102	12.97
997.274	115.37
997.447	41.64
997.619	-23.89
997.791	-58.71
997.964	12.97
998.136	78.51
998.308	-9.56
998.48	-9.56
998.653	27.31
998.825	2.73
998.997	19.11
999.169	64.17
999.342	-7.51
999.514	62.12
999.686	-81.24
999.858	121.51
1000.03	39.59
1000.202	39.59
1000.374	33.45
1000.547	35.5
1000.719	-60.76
1000.891	-71
1001.063	62.12
1001.235	-23.89
1001.407	35.5
1001.579	-17.75
1001.751	0.68
1001.923	23.21
1002.095	-17.75
1002.267	-56.66
1002.439	-60.76
1002.611	74.41
1002.783	-17.75
1002.955	-44.37
1003.127	58.03
1003.299	-183.63
1003.471	2.73
1003.643	51.88
1003.815	49.83
1003.986	25.26
1004.158	-1.37
1004.33	-93.52
1004.502	25.26
1004.674	55.98
1004.846	-62.8
1005.017	27.31
1005.189	-73.04
1005.361	-5.46
1005.533	107.18
1005.704	-44.37
1005.876	66.22
1006.048	-68.95
1006.22	-19.8
1006.391	-1.37
1006.563	70.31
1006.735	25.26
1006.906	-15.7
1007.078	27.31
1007.25	4.78
1007.421	19.11
1007.593	35.5
1007.764	-17.75
1007.936	-17.75
1008.108	29.35
1008.279	-25.94
1008.451	4.78
1008.622	-30.04
1008.794	-11.61
1008.965	84.65
1009.137	51.88
1009.308	-50.52
1009.48	-128.34
1009.651	8.87
1009.823	4.78
1009.994	-5.46
1010.165	47.79
1010.337	72.36
1010.508	12.97
1010.68	-15.7
1010.851	-122.2
1011.022	39.59
1011.194	23.21
1011.365	-3.41
1011.536	8.87
1011.708	-30.04
1011.879	-25.94
1012.05	-75.09
1012.222	21.16
1012.393	96.94
1012.564	4.78
1012.735	23.21
1012.906	12.97
1013.078	-23.89
1013.249	53.93
1013.42	-52.56
1013.591	-68.95
1013.762	-23.89
1013.934	-21.84
1014.105	23.21
1014.276	-1.37
1014.447	-75.09
1014.618	15.02
1014.789	35.5
1014.96	-9.56
1015.131	-21.84
1015.302	-13.65
1015.473	-52.56
1015.644	17.07
1015.815	-15.7
1015.986	94.89
1016.157	49.83
1016.328	-32.08
1016.499	41.64
1016.67	19.11
1016.841	21.16
1017.012	-105.81
1017.183	41.64
1017.354	8.87
1017.525	33.45
1017.696	47.79
1017.867	37.55
1018.037	49.83
1018.208	58.03
1018.379	29.35
1018.55	66.22
1018.721	-42.32
1018.891	74.41
1019.062	74.41
1019.233	-46.42
1019.404	62.12
1019.574	-25.94
1019.745	35.5
1019.916	74.41
1020.087	-15.7
1020.257	-30.04
1020.428	-15.7
1020.599	12.97
1020.769	27.31
1020.94	-64.85
1021.11	8.87
1021.281	39.59
1021.452	35.5
1021.622	15.02
1021.793	-5.46
1021.963	43.69
1022.134	-42.32
1022.305	80.55
1022.475	27.31
1022.646	92.84
1022.816	70.31
1022.987	-23.89
1023.157	-64.85
1023.327	-58.71
1023.498	-36.18
1023.668	4.78
1023.839	78.51
1024.009	-13.65
1024.18	-58.71
1024.35	-7.51
1024.52	33.45
1024.691	55.98
1024.861	45.74
1025.031	37.55
1025.202	-19.8
1025.372	41.64
1025.542	35.5
1025.713	109.22
1025.883	-81.24
1026.053	29.35
1026.223	49.83
1026.394	-75.09
1026.564	0.68
1026.734	66.22
1026.904	35.5
1027.074	8.87
1027.245	-42.32
1027.415	58.03
1027.585	-75.09
1027.755	31.4
1027.925	-95.57
1028.095	47.79
1028.265	-21.85
1028.435	-7.51
1028.606	-13.65
1028.776	78.51
1028.946	12.97
1029.116	-48.47
1029.286	6.83
1029.456	86.7
1029.626	92.84
1029.796	-23.89
1029.966	4.78
1030.136	23.21
1030.306	-58.71
1030.475	121.51
1030.645	0.68
1030.815	-50.52
1030.985	43.69
1031.155	37.55
1031.325	2.73
1031.495	47.79
1031.665	-9.56
1031.835	-56.66
1032.004	2.73
1032.174	-25.94
1032.344	19.11
1032.514	29.35
1032.684	27.31
1032.853	84.65
1033.023	-21.85
1033.193	31.4
1033.362	4.78
1033.532	10.92
1033.702	-71
1033.872	6.83
1034.041	101.03
1034.211	10.92
1034.381	-40.28
1034.55	53.93
1034.72	-27.99
1034.889	27.31
1035.059	-173.39
1035.229	33.45
1035.398	31.4
1035.568	8.87
1035.737	68.27
1035.907	-17.75
1036.076	-5.46
1036.246	-13.65
1036.415	-56.66
1036.585	55.98
1036.754	-11.61
1036.924	105.13
1037.093	-116.05
1037.263	51.88
1037.432	25.26
1037.601	17.07
1037.771	111.27
1037.94	-34.13
1038.11	-36.18
1038.279	19.11
1038.448	6.83
1038.618	66.22
1038.787	68.27
1038.956	-42.32
1039.126	2.73
1039.295	-68.95
1039.464	-21.85
1039.633	-9.56
1039.803	-23.89
1039.972	74.41
1040.141	-36.18
1040.31	6.83
1040.479	88.75
1040.649	64.17
1040.818	-40.28
1040.987	37.55
1041.156	74.41
1041.325	-7.51
1041.494	-50.52
1041.663	144.04
1041.833	80.55
1042.002	-56.66
1042.171	49.83
1042.34	-52.56
1042.509	47.79
1042.678	58.03
