Data from LSP82_X18_Subt2_13-53-35-581.txt Node
Date: Tue Aug 22 13:53:35 EDT 2023
User: Emmanuel
Spectrometer: USB4A00615
Scans to average: 1
Trigger mode: 1
Integration Time (sec): 5.000000E-3
Electric dark correction enabled: true
Boxcar width: 0
XAxis mode: Wavelengths
Number of Pixels in Spectrum: 3648
>>>>>Begin Spectral Data<<<<<
346.606	-188.41
346.818	-188.41
347.029	-188.41
347.241	-2.05
347.452	16.38
347.664	-83.97
347.876	71.68
348.087	-118.78
348.299	-118.78
348.51	61.44
348.722	-51.2
348.933	96.25
349.145	20.48
349.356	71.68
349.568	24.58
349.779	61.44
349.991	-34.82
350.202	24.58
350.414	-81.92
350.625	-47.1
350.836	43.01
351.048	73.73
351.259	6.14
351.471	45.06
351.682	36.86
351.893	18.43
352.105	-69.63
352.316	30.72
352.527	-6.14
352.739	79.87
352.95	53.25
353.161	-22.53
353.372	16.38
353.584	81.92
353.795	88.06
354.006	-12.29
354.217	-77.82
354.429	-12.29
354.64	2.05
354.851	-8.19
355.062	-18.43
355.274	57.34
355.485	-110.59
355.696	94.21
355.907	26.62
356.118	10.24
356.329	32.77
356.54	53.25
356.752	-73.73
356.963	-4.1
357.174	14.34
357.385	63.49
357.596	55.3
357.807	-45.06
358.018	71.68
358.229	57.34
358.44	86.01
358.651	75.77
358.862	-24.58
359.073	-65.54
359.284	45.06
359.495	8.19
359.706	-116.73
359.917	-26.62
360.128	79.87
360.339	-53.25
360.55	-116.73
360.761	88.06
360.972	-81.92
361.182	-6.14
361.393	-38.91
361.604	-12.29
361.815	32.77
362.026	-81.92
362.237	92.16
362.447	-38.91
362.658	-28.67
362.869	-2.05
363.08	-18.43
363.291	-30.72
363.501	38.91
363.712	-8.19
363.923	30.72
364.134	-71.68
364.344	-2.05
364.555	-4.1
364.766	49.15
364.976	77.82
365.187	55.3
365.398	90.11
365.608	-96.25
365.819	124.93
366.03	34.82
366.24	4.1
366.451	-40.96
366.662	75.77
366.872	79.87
367.083	-36.86
367.293	-30.72
367.504	-108.54
367.714	45.06
367.925	-40.96
368.135	51.2
368.346	-83.97
368.557	34.82
368.767	67.58
368.977	-10.24
369.188	22.53
369.398	-4.1
369.609	14.34
369.819	-45.06
370.03	49.15
370.24	28.67
370.451	24.58
370.661	26.62
370.871	53.25
371.082	10.24
371.292	32.77
371.502	-71.68
371.713	-14.34
371.923	24.58
372.133	71.68
372.344	32.77
372.554	118.78
372.764	49.15
372.975	-4.1
373.185	86.01
373.395	-83.97
373.605	-34.82
373.816	83.97
374.026	-28.67
374.236	38.91
374.446	-47.1
374.656	-4.1
374.867	100.35
375.077	28.67
375.287	36.86
375.497	34.82
375.707	-8.19
375.917	-36.86
376.127	-6.14
376.338	30.72
376.548	28.67
376.758	14.34
376.968	51.2
377.178	45.06
377.388	-57.34
377.598	-34.82
377.808	-16.38
378.018	20.48
378.228	16.38
378.438	81.92
378.648	38.91
378.858	100.35
379.068	-108.54
379.278	-55.3
379.488	-18.43
379.698	-59.39
379.908	-12.29
380.118	149.5
380.327	43.01
380.537	8.19
380.747	53.25
380.957	2.05
381.167	20.48
381.377	-28.67
381.587	14.34
381.796	24.58
382.006	-55.3
382.216	-47.1
382.426	-30.72
382.636	8.19
382.845	-28.67
383.055	22.53
383.265	16.38
383.475	-20.48
383.684	63.49
383.894	-32.77
384.104	-26.62
384.313	8.19
384.523	43.01
384.733	51.2
384.942	-6.14
385.152	-8.19
385.362	-22.53
385.571	-22.53
385.781	-30.72
385.991	55.3
386.2	45.06
386.41	-16.38
386.619	94.21
386.829	-51.2
387.038	-57.34
387.248	-14.34
387.457	67.58
387.667	18.43
387.876	-59.39
388.086	10.24
388.295	-2.05
388.505	-63.49
388.714	12.29
388.924	71.68
389.133	-30.72
389.343	-75.77
389.552	38.91
389.762	43.01
389.971	-49.15
390.18	22.53
390.39	-26.62
390.599	18.43
390.808	-65.54
391.018	40.96
391.227	-34.82
391.436	-51.2
391.646	-36.86
391.855	57.34
392.064	-6.14
392.274	-16.38
392.483	8.19
392.692	-10.24
392.901	-18.43
393.111	12.29
393.32	20.48
393.529	-43.01
393.738	-45.06
393.947	30.72
394.157	14.34
394.366	-18.43
394.575	-63.49
394.784	-12.29
394.993	-4.1
395.202	88.06
395.411	120.83
395.62	75.77
395.83	-59.39
396.039	69.63
396.248	-34.82
396.457	79.87
396.666	-24.58
396.875	118.78
397.084	10.24
397.293	6.14
397.502	6.14
397.711	18.43
397.92	40.96
398.129	-49.15
398.338	-22.53
398.547	-18.43
398.756	49.15
398.965	-129.02
399.174	-73.73
399.382	8.19
399.591	-34.82
399.8	73.73
400.009	-26.62
400.218	100.35
400.427	32.77
400.636	32.77
400.844	38.91
401.053	40.96
401.262	40.96
401.471	4.1
401.68	-24.58
401.888	110.59
402.097	79.87
402.306	34.82
402.515	45.06
402.723	69.63
402.932	-12.29
403.141	-12.29
403.35	51.2
403.558	10.24
403.767	-47.1
403.976	67.58
404.184	159.74
404.393	104.45
404.602	86.01
404.81	81.92
405.019	43.01
405.227	-2.05
405.436	14.34
405.645	67.58
405.853	-12.29
406.062	-8.19
406.27	53.25
406.479	10.24
406.687	51.2
406.896	47.1
407.104	92.16
407.313	8.19
407.521	20.48
407.73	-24.58
407.938	16.38
408.147	32.77
408.355	-12.29
408.563	-43.01
408.772	-10.24
408.98	8.19
409.189	49.15
409.397	61.44
409.605	-16.38
409.814	-6.14
410.022	79.87
410.23	36.86
410.439	26.62
410.647	-6.14
410.855	14.34
411.064	4.1
411.272	83.97
411.48	61.44
411.688	-14.34
411.897	124.93
412.105	-40.96
412.313	-4.1
412.521	49.15
412.73	92.16
412.938	-55.3
413.146	-18.43
413.354	-61.44
413.562	-4.1
413.77	-65.54
413.979	49.15
414.187	-4.1
414.395	0
414.603	32.77
414.811	83.97
415.019	71.68
415.227	20.48
415.435	34.82
415.643	22.53
415.851	-32.77
416.059	-92.16
416.267	-57.34
416.475	30.72
416.683	61.44
416.891	57.34
417.099	36.86
417.307	6.14
417.515	45.06
417.723	32.77
417.931	157.69
418.139	118.78
418.347	-24.58
418.555	43.01
418.763	16.38
418.971	-0
419.179	-40.96
419.386	-34.82
419.594	-22.53
419.802	-32.77
420.01	81.92
420.218	26.62
420.426	59.39
420.633	55.3
420.841	102.4
421.049	-16.38
421.257	149.5
421.464	77.82
421.672	245.76
421.88	227.32
422.088	75.77
422.295	20.48
422.503	-73.73
422.711	36.86
422.918	26.62
423.126	116.73
423.334	-16.38
423.541	49.15
423.749	10.24
423.956	61.44
424.164	104.45
424.372	34.82
424.579	-10.24
424.787	-8.19
424.994	26.62
425.202	0
425.409	151.55
425.617	63.49
425.824	63.49
426.032	-26.62
426.239	24.58
426.447	8.19
426.654	51.2
426.862	26.62
427.069	0
427.277	57.34
427.484	186.37
427.692	118.78
427.899	26.62
428.106	235.52
428.314	180.22
428.521	188.41
428.728	57.34
428.936	176.13
429.143	157.69
429.351	10.24
429.558	2.05
429.765	176.13
429.972	-24.58
430.18	153.6
430.387	251.9
430.594	157.69
430.801	92.16
431.009	135.17
431.216	79.87
431.423	61.44
431.63	71.68
431.838	108.54
432.045	47.1
432.252	83.97
432.459	57.34
432.666	40.96
432.873	-16.38
433.081	67.58
433.288	55.3
433.495	6.14
433.702	157.69
433.909	20.48
434.116	49.15
434.323	-12.29
434.53	122.88
434.737	16.38
434.944	83.97
435.151	-169.98
435.358	114.69
435.565	86.01
435.772	38.91
435.979	-12.29
436.186	157.69
436.393	59.39
436.6	-12.29
436.807	30.72
437.014	-22.53
437.221	10.24
437.428	-26.62
437.635	0
437.841	-6.14
438.048	14.34
438.255	63.49
438.462	8.19
438.669	28.67
438.876	-75.77
439.082	0
439.289	38.91
439.496	61.44
439.703	-51.2
439.91	8.19
440.116	51.2
440.323	-43.01
440.53	-24.58
440.737	-30.72
440.943	38.91
441.15	8.19
441.357	-24.58
441.563	-51.2
441.77	71.68
441.977	-4.1
442.183	45.06
442.39	-16.38
442.597	-45.06
442.803	71.68
443.01	75.77
443.216	20.48
443.423	67.58
443.63	165.89
443.836	116.73
444.043	34.82
444.249	36.86
444.456	124.93
444.662	94.21
444.869	59.39
445.075	61.44
445.282	47.1
445.488	49.15
445.695	157.69
445.901	34.82
446.107	73.73
446.314	88.06
446.52	81.92
446.727	10.24
446.933	36.86
447.139	43.01
447.346	104.45
447.552	-45.06
447.759	67.58
447.965	118.78
448.171	-16.38
448.378	86.01
448.584	104.45
448.79	118.78
448.996	-16.38
449.203	24.58
449.409	73.73
449.615	36.86
449.821	79.87
450.028	108.54
450.234	51.2
450.44	116.73
450.646	-28.67
450.852	169.98
451.059	169.98
451.265	98.3
451.471	161.79
451.677	47.1
451.883	38.91
452.089	-43.01
452.295	83.97
452.502	126.97
452.708	112.64
452.914	36.86
453.12	139.26
453.326	65.53
453.532	59.39
453.738	18.43
453.944	20.48
454.15	157.69
454.356	43.01
454.562	6.14
454.768	30.72
454.974	49.15
455.18	81.92
455.386	38.91
455.592	155.65
455.798	4.1
456.003	16.38
456.209	-55.3
456.415	-14.34
456.621	67.58
456.827	4.1
457.033	57.34
457.239	45.06
457.444	131.07
457.65	14.34
457.856	57.34
458.062	98.3
458.268	-57.34
458.473	81.92
458.679	45.06
458.885	16.38
459.091	79.87
459.296	4.1
459.502	-32.77
459.708	14.34
459.914	157.69
460.119	-45.06
460.325	49.15
460.531	59.39
460.736	116.73
460.942	102.4
461.147	-6.14
461.353	59.39
461.559	-36.86
461.764	129.02
461.97	-38.91
462.175	0
462.381	104.45
462.587	-16.38
462.792	16.38
462.998	36.86
463.203	-51.2
463.409	63.49
463.614	75.77
463.82	77.82
464.025	65.54
464.231	8.19
464.436	36.86
464.641	65.53
464.847	2.05
465.052	-14.34
465.258	63.49
465.463	131.07
465.669	2.05
465.874	-92.16
466.079	-28.67
466.285	20.48
466.49	4.1
466.695	-16.38
466.901	0
467.106	18.43
467.311	-16.38
467.516	-34.82
467.722	6.14
467.927	88.06
468.132	139.26
468.338	180.22
468.543	71.68
468.748	36.86
468.953	16.38
469.158	61.44
469.364	92.16
469.569	96.25
469.774	-6.14
469.979	106.49
470.184	16.38
470.389	83.97
470.594	40.96
470.8	38.91
471.005	53.25
471.21	141.31
471.415	98.3
471.62	6.14
471.825	4.1
472.03	40.96
472.235	155.65
472.44	108.54
472.645	30.72
472.85	-51.2
473.055	126.97
473.26	79.87
473.465	16.38
473.67	-22.53
473.875	65.53
474.08	118.78
474.285	51.2
474.49	2.05
474.695	67.58
474.899	30.72
475.104	-26.62
475.309	126.97
475.514	30.72
475.719	106.49
475.924	36.86
476.128	59.39
476.333	12.29
476.538	135.17
476.743	32.77
476.948	47.1
477.152	16.38
477.357	108.54
477.562	32.77
477.767	34.82
477.971	-30.72
478.176	-30.72
478.381	36.86
478.585	129.02
478.79	71.68
478.995	10.24
479.199	61.44
479.404	100.35
479.609	16.38
479.813	-8.19
480.018	96.25
480.223	2.05
480.427	88.06
480.632	145.41
480.836	102.4
481.041	100.35
481.245	83.97
481.45	90.11
481.654	4.1
481.859	133.12
482.063	147.45
482.268	149.5
482.472	174.08
482.677	120.83
482.881	264.19
483.086	71.68
483.29	32.77
483.495	159.74
483.699	145.41
483.903	241.66
484.108	217.08
484.312	100.35
484.517	286.72
484.721	573.43
484.925	55.3
485.13	202.75
485.334	159.74
485.538	92.16
485.743	137.21
485.947	96.25
486.151	280.57
486.355	98.3
486.56	159.74
486.764	233.47
486.968	122.88
487.172	172.03
487.377	282.62
487.581	186.37
487.785	59.39
487.989	417.79
488.193	174.08
488.397	333.82
488.602	274.43
488.806	813.04
489.01	372.73
489.214	317.44
489.418	206.84
489.622	329.72
489.826	235.52
490.03	169.98
490.234	284.67
490.438	210.94
490.642	284.67
490.846	188.41
491.05	190.46
491.254	262.14
491.458	188.41
491.662	522.23
491.866	200.7
492.07	208.89
492.274	174.08
492.478	202.75
492.682	61.44
492.886	178.17
493.09	245.76
493.294	264.19
493.498	129.02
493.701	358.39
493.905	131.07
494.109	276.48
494.313	155.65
494.517	305.15
494.721	63.49
494.924	169.98
495.128	147.45
495.332	301.05
495.536	135.17
495.739	167.93
495.943	120.83
496.147	249.85
496.351	243.71
496.554	575.48
496.758	235.52
496.962	196.61
497.165	67.58
497.369	212.99
497.573	208.89
497.776	591.86
497.98	204.8
498.184	665.59
498.387	565.24
498.591	561.14
498.794	229.37
498.998	325.63
499.202	210.94
499.405	206.84
499.609	161.79
499.812	249.85
500.016	102.4
500.219	485.37
500.423	118.78
500.626	294.91
500.83	256
501.033	567.29
501.237	194.56
501.44	788.47
501.643	372.73
501.847	290.81
502.05	352.25
502.254	294.91
502.457	212.99
502.66	370.68
502.864	186.37
503.067	67.58
503.271	157.69
503.474	137.21
503.677	227.32
503.88	333.82
504.084	157.69
504.287	221.18
504.49	182.27
504.694	161.79
504.897	141.31
505.1	479.22
505.303	798.71
505.507	1726.44
505.71	606.2
505.913	499.7
506.116	172.03
506.319	606.2
506.522	370.68
506.726	413.69
506.929	546.81
507.132	749.56
507.335	253.95
507.538	309.24
507.741	284.67
507.944	202.75
508.147	143.36
508.35	428.03
508.553	219.13
508.756	317.44
508.959	172.03
509.163	352.25
509.366	212.99
509.569	362.49
509.771	198.65
509.974	200.7
510.177	145.41
510.38	573.43
510.583	288.76
510.786	299
510.989	395.26
511.192	303.1
511.395	190.46
511.598	190.46
511.801	104.45
512.004	542.71
512.206	180.22
512.409	468.98
512.612	256
512.815	262.14
513.018	335.87
513.22	526.33
513.423	124.93
513.626	659.45
513.829	395.26
514.032	587.77
514.234	348.15
514.437	368.63
514.64	364.54
514.842	690.17
515.045	403.45
515.248	759.8
515.45	411.64
515.653	276.48
515.856	372.73
516.058	471.03
516.261	532.47
516.464	344.06
516.666	178.17
516.869	743.41
517.071	440.31
517.274	575.48
517.477	221.18
517.679	915.44
517.882	415.74
518.084	866.29
518.287	667.64
518.489	694.26
518.692	1079.28
518.894	575.48
519.097	737.27
519.299	839.67
519.501	802.8
519.704	1157.1
519.906	876.53
520.109	931.83
520.311	520.18
520.514	1333.23
520.716	825.33
520.918	1005.55
521.121	983.02
521.323	1427.43
521.525	620.53
521.728	1075.18
521.93	563.19
522.132	1533.93
522.335	1621.99
522.537	1787.88
522.739	690.17
522.941	1314.8
523.144	1368.04
523.346	1081.33
523.548	843.76
523.75	985.07
523.952	894.96
524.155	1478.63
524.357	610.29
524.559	1056.75
524.761	966.64
524.963	1038.32
525.165	630.77
525.368	1501.16
525.57	739.32
525.772	1902.56
525.974	1050.61
526.176	1290.22
526.378	882.67
526.58	1105.9
526.782	784.37
526.984	927.73
527.186	579.58
527.388	1292.27
527.59	747.51
527.792	1239.02
527.994	593.91
528.196	1228.78
528.398	620.53
528.6	1169.39
528.802	247.8
529.004	884.72
529.206	360.44
529.408	1157.1
529.609	819.19
529.811	974.83
530.013	694.26
530.215	1071.09
530.417	483.32
530.619	1052.66
530.821	483.32
531.022	849.91
531.224	593.91
531.426	1402.86
531.628	1036.27
531.829	911.35
532.031	567.29
532.233	864.24
532.435	581.62
532.636	581.62
532.838	563.19
533.04	671.73
533.241	688.12
533.443	854
533.645	823.28
533.846	866.29
534.048	331.77
534.25	626.68
534.451	491.51
534.653	598.01
534.855	561.14
535.056	690.17
535.258	415.74
535.459	1040.37
535.661	409.59
535.862	935.92
536.064	200.7
536.265	534.52
536.467	235.52
536.668	370.68
536.87	360.44
537.071	559.1
537.273	532.47
537.474	835.57
537.676	317.44
537.877	681.97
538.078	278.52
538.28	137.21
538.481	364.54
538.683	563.19
538.884	88.06
539.085	364.54
539.287	356.35
539.488	505.85
539.689	143.36
539.891	735.22
540.092	286.72
540.293	258.04
540.495	573.43
540.696	276.48
540.897	106.49
541.098	161.79
541.3	219.13
541.501	395.26
541.702	266.24
541.903	307.2
542.104	208.89
542.306	200.7
542.507	370.68
542.708	421.88
542.909	139.26
543.11	555
543.311	98.3
543.512	260.09
543.713	141.31
543.915	186.37
544.116	118.78
544.317	335.87
544.518	247.8
544.719	245.76
544.92	233.47
545.121	225.28
545.322	323.58
545.523	356.35
545.724	219.13
545.925	161.79
546.126	180.22
546.327	342.01
546.528	253.95
546.729	133.12
546.929	149.5
547.13	499.7
547.331	196.61
547.532	374.78
547.733	337.91
547.934	387.07
548.135	75.77
548.336	192.51
548.536	28.67
548.737	358.39
548.938	331.77
549.139	374.78
549.34	169.98
549.54	348.15
549.741	331.77
549.942	348.15
550.143	73.73
550.343	559.1
550.544	75.77
550.745	245.76
550.945	256
551.146	180.22
551.347	106.49
551.547	296.96
551.748	135.17
551.949	198.65
552.149	346.11
552.35	188.41
552.551	188.41
552.751	511.99
552.952	145.41
553.152	180.22
553.353	620.53
553.553	403.45
553.754	266.24
553.954	176.13
554.155	112.64
554.356	77.82
554.556	110.59
554.756	155.65
554.957	159.74
555.157	251.9
555.358	188.41
555.558	161.79
555.759	335.87
555.959	313.34
556.159	198.65
556.36	667.64
556.56	169.98
556.761	221.18
556.961	534.52
557.161	182.27
557.362	106.49
557.562	282.62
557.762	10.24
557.963	274.43
558.163	401.4
558.363	73.73
558.563	245.76
558.764	577.53
558.964	241.66
559.164	493.56
559.364	663.54
559.565	202.75
559.765	450.55
559.965	440.31
560.165	258.04
560.365	260.09
560.565	292.86
560.766	165.89
560.966	227.32
561.166	88.06
561.366	133.12
561.566	210.94
561.766	155.65
561.966	292.86
562.166	378.87
562.366	335.87
562.566	260.09
562.766	993.26
562.966	239.61
563.166	628.73
563.366	581.62
563.566	206.84
563.766	192.51
563.966	806.9
564.166	118.78
564.366	479.22
564.566	145.41
564.766	215.04
564.966	100.35
565.166	286.72
565.366	81.92
565.565	415.74
565.765	32.77
565.965	96.25
566.165	137.21
566.365	131.07
566.565	256
566.764	409.59
566.964	102.4
567.164	628.73
567.364	239.61
567.564	374.78
567.763	325.63
567.963	174.08
568.163	100.35
568.362	735.22
568.562	45.06
568.762	129.02
568.961	151.55
569.161	59.39
569.361	79.87
569.56	165.89
569.76	81.92
569.96	149.5
570.159	118.78
570.359	174.08
570.558	43.01
570.758	151.55
570.958	88.06
571.157	98.3
571.357	96.25
571.556	186.37
571.756	129.02
571.955	174.08
572.155	126.97
572.354	258.04
572.554	206.84
572.753	307.2
572.953	167.93
573.152	698.36
573.351	81.92
573.551	565.24
573.75	180.22
573.95	176.13
574.149	126.97
574.348	354.3
574.548	157.69
574.747	151.55
574.946	81.92
575.146	167.93
575.345	247.8
575.544	8.19
575.744	131.07
575.943	96.25
576.142	69.63
576.342	147.45
576.541	30.72
576.74	4.1
576.939	-20.48
577.138	43.01
577.338	75.77
577.537	-49.15
577.736	-36.86
577.935	137.21
578.134	94.21
578.333	165.89
578.533	8.19
578.732	69.63
578.931	79.87
579.13	43.01
579.329	90.11
579.528	59.39
579.727	69.63
579.926	122.88
580.125	18.43
580.324	90.11
580.523	169.98
580.722	34.82
580.921	18.43
581.12	106.49
581.319	81.92
581.518	88.06
581.717	51.2
581.916	-6.14
582.115	49.15
582.314	151.55
582.513	-36.86
582.712	118.78
582.911	24.58
583.109	83.97
583.308	83.97
583.507	124.93
583.706	-10.24
583.905	159.74
584.104	-26.62
584.302	47.1
584.501	18.43
584.7	88.06
584.899	45.06
585.098	6.14
585.296	167.93
585.495	51.2
585.694	38.91
585.892	94.21
586.091	30.72
586.29	38.91
586.488	124.93
586.687	137.21
586.886	149.5
587.084	112.64
587.283	165.89
587.482	133.12
587.68	67.58
587.879	145.41
588.077	55.3
588.276	118.78
588.475	92.16
588.673	133.12
588.872	98.3
589.07	4.1
589.269	40.96
589.467	88.06
589.666	77.82
589.864	59.39
590.063	112.64
590.261	18.43
590.46	100.35
590.658	114.69
590.857	18.43
591.055	-34.82
591.253	126.97
591.452	51.2
591.65	61.44
591.848	22.53
592.047	65.53
592.245	94.21
592.444	65.54
592.642	24.58
592.84	110.59
593.038	-4.1
593.237	65.53
593.435	51.2
593.633	81.92
593.832	6.14
594.03	247.8
594.228	73.73
594.426	6.14
594.624	61.44
594.823	102.4
595.021	147.45
595.219	14.34
595.417	110.59
595.615	104.45
595.813	40.96
596.012	-65.53
596.21	106.49
596.408	92.16
596.606	98.3
596.804	55.3
597.002	-2.05
597.2	-4.1
597.398	-57.34
597.596	65.53
597.794	69.63
597.992	30.72
598.19	122.88
598.388	90.11
598.586	159.74
598.784	18.43
598.982	24.58
599.18	114.69
599.378	79.87
599.576	-43.01
599.774	120.83
599.972	40.96
600.17	30.72
600.368	-24.58
600.565	165.89
600.763	96.25
600.961	20.48
601.159	45.06
601.357	-4.1
601.555	81.92
601.752	122.88
601.95	53.25
602.148	-88.06
602.346	98.3
602.544	120.83
602.741	55.3
602.939	32.77
603.137	65.54
603.334	157.69
603.532	53.25
603.73	161.79
603.927	86.01
604.125	28.67
604.323	-38.91
604.52	182.27
604.718	65.54
604.916	118.78
605.113	47.1
605.311	120.83
605.508	53.25
605.706	149.5
605.904	47.1
606.101	243.71
606.299	133.12
606.496	104.45
606.694	4.1
606.891	90.11
607.089	86.01
607.286	90.11
607.484	96.25
607.681	28.67
607.879	-24.58
608.076	12.29
608.273	88.06
608.471	-14.34
608.668	30.72
608.866	81.92
609.063	0
609.26	-6.14
609.458	98.3
609.655	98.3
609.852	18.43
610.05	116.73
610.247	-36.86
610.444	98.3
610.642	-43.01
610.839	-16.38
611.036	88.06
611.233	49.15
611.431	8.19
611.628	34.82
611.825	63.49
612.022	34.82
612.22	100.35
612.417	-51.2
612.614	6.14
612.811	53.25
613.008	90.11
613.205	55.3
613.402	0
613.6	16.38
613.797	4.1
613.994	2.05
614.191	98.3
614.388	-6.14
614.585	-6.14
614.782	49.15
614.979	94.21
615.176	16.38
615.373	12.29
615.57	51.2
615.767	-8.19
615.964	-12.29
616.161	0
616.358	24.58
616.555	77.82
616.752	73.73
616.949	14.34
617.146	34.82
617.343	79.87
617.539	69.63
617.736	51.2
617.933	57.34
618.13	133.12
618.327	63.49
618.524	-6.14
618.721	26.62
618.917	120.83
619.114	34.82
619.311	104.45
619.508	45.06
619.704	92.16
619.901	49.15
620.098	96.25
620.295	2.05
620.491	14.34
620.688	104.45
620.885	-14.34
621.081	51.2
621.278	75.77
621.475	45.06
621.671	14.34
621.868	-8.19
622.065	124.93
622.261	-45.06
622.458	65.53
622.655	-75.77
622.851	88.06
623.048	-14.34
623.244	118.78
623.441	-18.43
623.637	-67.58
623.834	-45.06
624.03	28.67
624.227	59.39
624.423	53.25
624.62	40.96
624.816	71.68
625.013	94.21
625.209	45.06
625.406	112.64
625.602	51.2
625.798	-114.69
625.995	73.73
626.191	155.65
626.388	6.14
626.584	-20.48
626.78	102.4
626.977	-67.58
627.173	-26.62
627.369	-47.1
627.566	149.5
627.762	-34.82
627.958	71.68
628.154	4.1
628.351	-51.2
628.547	94.21
628.743	57.34
628.939	34.82
629.136	63.49
629.332	-59.39
629.528	174.08
629.724	2.05
629.92	69.63
630.116	79.87
630.313	16.38
630.509	71.68
630.705	32.77
630.901	-57.34
631.097	53.25
631.293	-61.44
631.489	112.64
631.685	-81.92
631.881	73.73
632.077	81.92
632.273	69.63
632.469	-63.49
632.665	47.1
632.861	71.68
633.057	75.77
633.253	75.77
633.449	-34.82
633.645	36.86
633.841	-20.48
634.037	98.3
634.233	139.26
634.429	-14.34
634.625	10.24
634.821	-69.63
635.017	86.01
635.212	-28.67
635.408	83.97
635.604	14.34
635.8	79.87
635.996	-47.1
636.191	-18.43
636.387	10.24
636.583	-47.1
636.779	-51.2
636.975	34.82
637.17	90.11
637.366	-18.43
637.562	-104.45
637.757	-30.72
637.953	-18.43
638.149	-22.53
638.345	20.48
638.54	83.97
638.736	-38.91
638.931	73.73
639.127	63.49
639.323	-49.15
639.518	59.39
639.714	26.62
639.909	-169.98
640.105	26.62
640.301	81.92
640.496	-51.2
640.692	28.67
640.887	-10.24
641.083	151.55
641.278	77.82
641.474	-34.82
641.669	67.58
641.865	110.59
642.06	-49.15
642.256	-40.96
642.451	53.25
642.646	10.24
642.842	-81.92
643.037	43.01
643.233	88.06
643.428	57.34
643.623	22.53
643.819	-61.44
644.014	75.77
644.209	61.44
644.405	18.43
644.6	-18.43
644.795	-83.97
644.99	18.43
645.186	110.59
645.381	30.72
645.576	49.15
645.771	-45.06
645.967	98.3
646.162	-114.69
646.357	2.05
646.552	45.06
646.747	59.39
646.943	-45.06
647.138	-40.96
647.333	-20.48
647.528	65.53
647.723	36.86
647.918	94.21
648.113	73.73
648.308	34.82
648.504	24.58
648.699	92.16
648.894	30.72
649.089	22.53
649.284	43.01
649.479	-10.24
649.674	83.97
649.869	51.2
650.064	6.14
650.259	124.93
650.454	-51.2
650.649	157.69
650.844	131.07
651.038	20.48
651.233	-6.14
651.428	59.39
651.623	49.15
651.818	32.77
652.013	26.62
652.208	18.43
652.403	6.14
652.597	83.97
652.792	-32.77
652.987	8.19
653.182	65.54
653.377	122.88
653.571	-45.06
653.766	14.34
653.961	28.67
654.156	20.48
654.35	73.73
654.545	10.24
654.74	-26.62
654.935	-28.67
655.129	26.62
655.324	-10.24
655.519	-24.58
655.713	8.19
655.908	-18.43
656.102	38.91
656.297	20.48
656.492	12.29
656.686	-90.11
656.881	18.43
657.075	43.01
657.27	151.55
657.464	73.73
657.659	-22.53
657.854	26.62
658.048	-24.58
658.243	47.1
658.437	-30.72
658.631	81.92
658.826	-32.77
659.02	10.24
659.215	55.3
659.409	-32.77
659.604	-10.24
659.798	-18.43
659.992	24.58
660.187	-61.44
660.381	69.63
660.576	110.59
660.77	2.05
660.964	59.39
661.159	32.77
661.353	-57.34
661.547	-61.44
661.742	-43.01
661.936	53.25
662.13	0
662.324	67.58
662.519	26.62
662.713	-24.58
662.907	-8.19
663.101	63.49
663.295	-45.06
663.49	61.44
663.684	100.35
663.878	-4.1
664.072	122.88
664.266	-4.1
664.46	-2.05
664.654	-2.05
664.849	22.53
665.043	65.53
665.237	-53.25
665.431	22.53
665.625	-22.53
665.819	4.1
666.013	63.49
666.207	-28.67
666.401	8.19
666.595	-63.49
666.789	63.49
666.983	30.72
667.177	45.06
667.371	55.3
667.565	77.82
667.759	18.43
667.953	24.58
668.147	-26.62
668.34	61.44
668.534	20.48
668.728	14.34
668.922	-6.14
669.116	-14.34
669.31	79.87
669.504	6.14
669.697	20.48
669.891	-36.86
670.085	67.58
670.279	36.86
670.473	67.58
670.666	-6.14
670.86	61.44
671.054	-49.15
671.248	-30.72
671.441	-20.48
671.635	24.58
671.829	-116.73
672.022	96.25
672.216	-49.15
672.41	10.24
672.603	-30.72
672.797	30.72
672.99	57.34
673.184	32.77
673.378	-49.15
673.571	12.29
673.765	-61.44
673.958	-6.14
674.152	96.25
674.345	61.44
674.539	0
674.733	-28.67
674.926	22.53
675.12	-65.54
675.313	14.34
675.506	-20.48
675.7	22.53
675.893	112.64
676.087	16.38
676.28	81.92
676.474	-30.72
676.667	73.73
676.86	-10.24
677.054	45.06
677.247	-6.14
677.441	75.77
677.634	18.43
677.827	0
678.02	-24.58
678.214	-65.54
678.407	49.15
678.6	-14.34
678.794	38.91
678.987	-24.58
679.18	28.67
679.373	26.62
679.567	10.24
679.76	49.15
679.953	-14.34
680.146	61.44
680.339	34.82
680.533	18.43
680.726	120.83
680.919	-10.24
681.112	-36.86
681.305	36.86
681.498	8.19
681.691	96.25
681.884	114.69
682.077	83.97
682.271	-26.62
682.464	6.14
682.657	-49.15
682.85	28.67
683.043	14.34
683.236	-47.1
683.429	-12.29
683.622	118.78
683.815	-110.59
684.008	32.77
684.201	4.1
684.393	-4.1
684.586	-28.67
684.779	-38.91
684.972	63.49
685.165	-22.53
685.358	55.3
685.551	96.25
685.744	-38.91
685.937	-12.29
686.129	6.14
686.322	-20.48
686.515	0
686.708	34.82
686.901	-73.73
687.093	59.39
687.286	79.87
687.479	30.72
687.672	-47.1
687.864	-100.35
688.057	2.05
688.25	-10.24
688.442	24.58
688.635	28.67
688.828	20.48
689.02	139.26
689.213	-63.49
689.406	-141.31
689.598	-4.1
689.791	71.68
689.984	-38.91
690.176	57.34
690.369	-40.96
690.561	55.3
690.754	-14.34
690.946	71.68
691.139	-26.62
691.331	45.06
691.524	104.45
691.716	-6.14
691.909	32.77
692.101	106.49
692.294	-51.2
692.486	73.73
692.679	-40.96
692.871	-12.29
693.063	-20.48
693.256	32.77
693.448	-55.3
693.641	30.72
693.833	53.25
694.025	69.63
694.218	-45.06
694.41	129.02
694.602	26.62
694.795	43.01
694.987	-22.53
695.179	370.68
695.372	7149.46
695.564	12558.14
695.756	9547.63
695.948	8382.34
696.14	3008.47
696.333	2203.61
696.525	757.75
696.717	192.51
696.909	153.6
697.101	49.15
697.294	-18.43
697.486	98.3
697.678	104.45
697.87	-94.21
698.062	-43.01
698.254	-6.14
698.446	16.38
698.638	-16.38
698.83	-63.49
699.022	106.49
699.215	65.54
699.407	65.53
699.599	63.49
699.791	-2.05
699.983	61.44
700.175	45.06
700.367	-71.68
700.558	14.34
700.75	14.34
700.942	-118.78
701.134	-20.48
701.326	24.58
701.518	-71.68
701.71	-49.15
701.902	-4.1
702.094	104.45
702.286	32.77
702.477	69.63
702.669	40.96
702.861	118.78
703.053	75.77
703.245	4.1
703.436	65.53
703.628	63.49
703.82	22.53
704.012	110.59
704.203	-75.77
704.395	-49.15
704.587	51.2
704.779	6.14
704.97	-4.1
705.162	-14.34
705.354	595.96
705.545	4296.64
705.737	10098.53
705.929	8972.15
706.12	5521.32
706.312	3618.76
706.503	870.39
706.695	241.66
706.887	200.7
707.078	-2.05
707.27	6.14
707.461	75.77
707.653	-34.82
707.844	20.48
708.036	28.67
708.227	104.45
708.419	126.97
708.61	-36.86
708.802	151.55
708.993	98.3
709.185	-10.24
709.376	65.53
709.567	16.38
709.759	-28.67
709.95	-12.29
710.141	32.77
710.333	-45.06
710.524	-18.43
710.716	-26.62
710.907	22.53
711.098	100.35
711.289	45.06
711.481	-6.14
711.672	-30.72
711.863	-22.53
712.055	81.92
712.246	-40.96
712.437	51.2
712.628	30.72
712.82	20.48
713.011	61.44
713.202	100.35
713.393	63.49
713.584	40.96
713.775	63.49
713.967	38.91
714.158	77.82
714.349	-18.43
714.54	-14.34
714.731	55.3
714.922	-69.63
715.113	10.24
715.304	-6.14
715.495	-10.24
715.686	-22.53
715.877	-69.63
716.068	38.91
716.259	124.93
716.45	69.63
716.641	-6.14
716.832	49.15
717.023	90.11
717.214	-75.77
717.405	-4.1
717.596	81.92
717.787	104.45
717.978	0
718.169	139.26
718.36	0
718.55	26.62
718.741	-28.67
718.932	-77.82
719.123	40.96
719.314	22.53
719.505	-47.1
719.695	28.67
719.886	-43.01
720.077	28.67
720.268	6.14
720.458	83.97
720.649	26.62
720.84	-34.82
721.031	-94.21
721.221	22.53
721.412	-90.11
721.603	139.26
721.793	-53.25
721.984	6.14
722.175	-45.06
722.365	47.1
722.556	2.05
722.746	-59.39
722.937	49.15
723.128	-28.67
723.318	71.68
723.509	77.82
723.699	71.68
723.89	36.86
724.08	18.43
724.271	57.34
724.461	59.39
724.652	18.43
724.842	49.15
725.033	20.48
725.223	57.34
725.414	47.1
725.604	-40.96
725.794	24.58
725.985	32.77
726.175	-12.29
726.366	10.24
726.556	2.05
726.746	98.3
726.937	-32.77
727.127	-137.21
727.317	-24.58
727.508	-38.91
727.698	92.16
727.888	53.25
728.079	-83.97
728.269	-94.21
728.459	100.35
728.649	-6.14
728.84	-65.54
729.03	49.15
729.22	92.16
729.41	110.59
729.6	53.25
729.791	49.15
729.981	40.96
730.171	-28.67
730.361	-10.24
730.551	172.03
730.741	26.62
730.931	12.29
731.121	26.62
731.311	59.39
731.502	-106.49
731.692	-86.01
731.882	61.44
732.072	2.05
732.262	-14.34
732.452	-12.29
732.642	61.44
732.832	63.49
733.022	75.77
733.212	8.19
733.402	-55.3
733.591	16.38
733.781	16.38
733.971	14.34
734.161	-26.62
734.351	-4.1
734.541	-2.05
734.731	47.1
734.921	18.43
735.111	61.44
735.3	88.06
735.49	-47.1
735.68	131.07
735.87	14.34
736.06	-36.86
736.249	-6.14
736.439	67.58
736.629	22.53
736.819	120.83
737.008	638.97
737.198	4874.17
737.388	14833.44
737.577	13854.51
737.767	10096.49
737.957	9033.59
738.146	4497.34
738.336	1677.29
738.526	1413.1
738.715	174.08
738.905	153.6
739.094	116.73
739.284	20.48
739.474	77.82
739.663	53.25
739.853	49.15
740.042	2.05
740.232	-14.34
740.421	36.86
740.611	43.01
740.8	26.62
740.99	114.69
741.179	-14.34
741.369	2.05
741.558	36.86
741.748	73.73
741.937	-45.06
742.126	86.01
742.316	16.38
742.505	-79.87
742.695	6.14
742.884	32.77
743.073	38.91
743.263	2.05
743.452	51.2
743.641	14.34
743.831	32.77
744.02	20.48
744.209	67.58
744.398	106.49
744.588	0
744.777	63.49
744.966	106.49
745.155	43.01
745.345	141.31
745.534	-63.49
745.723	133.12
745.912	-16.38
746.101	-0
746.29	143.36
746.48	16.38
746.669	30.72
746.858	16.38
747.047	-40.96
747.236	-34.82
747.425	159.74
747.614	-49.15
747.803	73.73
747.992	-69.63
748.181	-8.19
748.37	22.53
748.559	92.16
748.748	47.1
748.937	32.77
749.126	423.93
749.315	1464.3
749.504	6696.86
749.693	10970.97
749.882	7524.24
750.071	7862.15
750.26	10790.75
750.449	9717.61
750.638	16977.66
750.826	16240.39
751.015	10682.2
751.204	9088.89
751.393	7413.65
751.582	2254.81
751.771	2605.02
751.959	786.42
752.148	194.56
752.337	274.43
752.526	163.84
752.714	-55.3
752.903	2.05
753.092	51.2
753.281	4.1
753.469	-6.14
753.658	34.82
753.847	51.2
754.035	-32.77
754.224	47.1
754.413	63.49
754.601	-131.07
754.79	32.77
754.979	2.05
755.167	59.39
755.356	-30.72
755.544	55.3
755.733	32.77
755.921	-79.87
756.11	38.91
756.298	59.39
756.487	-55.3
756.675	36.86
756.864	75.77
757.052	71.68
757.241	22.53
757.429	-6.14
757.618	-14.34
757.806	151.55
757.995	67.58
758.183	53.25
758.371	2.05
758.56	-43.01
758.748	57.34
758.937	122.88
759.125	-108.54
759.313	6.14
759.502	65.53
759.69	12.29
759.878	6.14
760.066	49.15
760.255	-34.82
760.443	51.2
760.631	20.48
760.819	-53.25
761.008	-65.53
761.196	22.53
761.384	32.77
761.572	22.53
761.761	147.45
761.949	321.53
762.137	794.61
762.325	9299.83
762.513	15546.13
762.701	21210.81
762.889	30735.91
763.077	27082.34
763.266	16891.65
763.454	17524.47
763.642	12394.31
763.83	6977.43
764.018	6139.81
764.206	4362.17
764.394	1136.62
764.582	1478.63
764.77	223.23
764.958	55.3
765.146	0
765.334	100.35
765.522	67.58
765.71	8.19
765.898	-10.24
766.085	112.64
766.273	75.77
766.461	14.34
766.649	-16.38
766.837	-24.58
767.025	24.58
767.213	2.05
767.401	-2.05
767.588	47.1
767.776	79.87
767.964	6.14
768.152	22.53
768.339	-63.49
768.527	63.49
768.715	45.06
768.903	34.82
769.09	-30.72
769.278	30.72
769.466	-69.63
769.654	65.53
769.841	2.05
770.029	-40.96
770.217	-12.29
770.404	32.77
770.592	-22.53
770.779	12.29
770.967	-6.14
771.155	-32.77
771.342	837.62
771.53	7903.11
771.717	9158.52
771.905	4624.31
772.092	7487.37
772.28	3629
772.467	1394.67
772.655	569.34
772.842	348.15
773.03	38.91
773.217	108.54
773.405	-20.48
773.592	38.91
773.78	96.25
773.967	-43.01
774.154	-0
774.342	108.54
774.529	22.53
774.717	14.34
774.904	4.1
775.091	2.05
775.279	100.35
775.466	57.34
775.653	-18.43
775.841	-18.43
776.028	-43.01
776.215	-63.49
776.402	-22.53
776.59	104.45
776.777	12.29
776.964	110.59
777.151	90.11
777.338	36.86
777.526	18.43
777.713	163.84
777.9	55.3
778.087	69.63
778.274	86.01
778.461	-10.24
778.649	14.34
778.836	-65.54
779.023	30.72
779.21	-18.43
779.397	55.3
779.584	98.3
779.771	114.69
779.958	-24.58
780.145	8.19
780.332	-59.39
780.519	96.25
780.706	32.77
780.893	43.01
781.08	-71.68
781.267	53.25
781.454	-30.72
781.641	53.25
781.828	24.58
782.015	65.53
782.202	-38.91
782.388	172.03
782.575	-51.2
782.762	43.01
782.949	-16.38
783.136	102.4
783.323	55.3
783.509	116.73
783.696	30.72
783.883	14.34
784.07	88.06
784.257	53.25
784.443	-8.19
784.63	-2.05
784.817	-90.11
785.004	-69.63
785.19	59.39
785.377	49.15
785.564	79.87
785.75	10.24
785.937	-40.96
786.124	-94.21
786.31	-88.06
786.497	81.92
786.683	12.29
786.87	-10.24
787.057	65.54
787.243	110.59
787.43	-65.54
787.616	63.49
787.803	43.01
787.989	49.15
788.176	-16.38
788.362	40.96
788.549	-92.16
788.735	59.39
788.922	18.43
789.108	-79.87
789.295	51.2
789.481	0
789.668	4.1
789.854	-45.06
790.04	0
790.227	-16.38
790.413	-8.19
790.599	120.83
790.786	126.97
790.972	26.62
791.158	30.72
791.345	96.25
791.531	34.82
791.717	-8.19
791.904	-51.2
792.09	49.15
792.276	40.96
792.462	-24.58
792.649	-83.97
792.835	73.73
793.021	47.1
793.207	-20.48
793.393	-34.82
793.58	51.2
793.766	-38.91
793.952	43.01
794.138	462.84
794.324	3651.53
794.51	6651.8
794.696	1273.84
794.882	661.49
795.069	438.27
795.255	188.41
795.441	-12.29
795.627	12.29
795.813	-12.29
795.999	83.97
796.185	120.83
796.371	28.67
796.557	47.1
796.743	116.73
796.929	18.43
797.115	-51.2
797.3	-24.58
797.486	43.01
797.672	12.29
797.858	-22.53
798.044	-16.38
798.23	24.58
798.416	61.44
798.602	45.06
798.788	106.49
798.973	-92.16
799.159	18.43
799.345	6.14
799.531	-43.01
799.717	104.45
799.902	30.72
800.088	770.04
800.274	1040.37
800.46	176.13
800.645	1677.29
800.831	7454.61
801.017	4370.37
801.202	2498.52
801.388	4161.47
801.574	2303.96
801.759	108.54
801.945	225.28
802.131	51.2
802.316	73.73
802.502	75.77
802.687	-8.19
802.873	-77.82
803.058	38.91
803.244	-51.2
803.43	-26.62
803.615	100.35
803.801	32.77
803.986	69.63
804.172	20.48
804.357	112.64
804.543	-45.06
804.728	51.2
804.913	-10.24
805.099	-38.91
805.284	53.25
805.47	45.06
805.655	-32.77
805.84	67.58
806.026	-61.44
806.211	26.62
806.397	30.72
806.582	71.68
806.767	-40.96
806.953	26.62
807.138	65.54
807.323	2.05
807.508	92.16
807.694	32.77
807.879	-14.34
808.064	-26.62
808.249	55.3
808.435	4.1
808.62	14.34
808.805	122.88
808.99	51.2
809.175	26.62
809.361	88.06
809.546	147.45
809.731	3964.87
809.916	11548.5
810.101	9596.78
810.286	4644.79
810.471	9795.43
810.656	12025.67
810.841	9725.8
811.026	13356.85
811.211	23682.71
811.396	20348.62
811.581	12136.26
811.766	12302.15
811.951	13883.18
812.136	7610.25
812.321	4528.06
812.506	4632.51
812.691	3528.65
812.876	501.75
813.061	417.79
813.246	387.07
813.431	26.62
813.616	18.43
813.801	86.01
813.986	-8.19
814.17	81.92
814.355	8.19
814.54	55.3
814.725	-102.4
814.91	116.73
815.094	116.73
815.279	-45.06
815.464	0
815.649	28.67
815.833	-67.58
816.018	53.25
816.203	30.72
816.388	61.44
816.572	16.38
816.757	38.91
816.942	28.67
817.126	4.1
817.311	36.86
817.496	-10.24
817.68	129.02
817.865	49.15
818.049	67.58
818.234	65.53
818.419	45.06
818.603	24.58
818.788	90.11
818.972	-32.77
819.157	55.3
819.341	-57.34
819.526	2.05
819.71	104.45
819.895	71.68
820.079	-32.77
820.264	104.45
820.448	-59.39
820.633	32.77
820.817	14.34
821.001	53.25
821.186	73.73
821.37	-4.1
821.554	104.45
821.739	0
821.923	49.15
822.108	32.77
822.292	75.77
822.476	34.82
822.66	24.58
822.845	30.72
823.029	2.05
823.213	45.06
823.398	-51.2
823.582	16.38
823.766	63.49
823.95	34.82
824.134	-69.63
824.319	112.64
824.503	28.67
824.687	18.43
824.871	-120.83
825.055	65.53
825.239	-32.77
825.423	-14.34
825.608	4.1
825.792	-4.1
825.976	6.14
826.16	-0
826.344	495.61
826.528	67.58
826.712	71.68
826.896	22.53
827.08	20.48
827.264	69.63
827.448	63.49
827.632	83.97
827.816	34.82
828	20.48
828.184	-65.54
828.368	47.1
828.552	-18.43
828.736	16.38
828.919	65.53
829.103	8.19
829.287	-28.67
829.471	18.43
829.655	51.2
829.839	32.77
830.023	34.82
830.206	38.91
830.39	-16.38
830.574	2.05
830.758	26.62
830.941	55.3
831.125	-106.49
831.309	-45.06
831.493	-38.91
831.676	18.43
831.86	0
832.044	-6.14
832.227	-28.67
832.411	49.15
832.595	-26.62
832.778	-8.19
832.962	108.54
833.146	2.05
833.329	30.72
833.513	53.25
833.696	-28.67
833.88	30.72
834.064	61.44
834.247	59.39
834.431	51.2
834.614	2.05
834.798	28.67
834.981	16.38
835.165	-55.3
835.348	6.14
835.532	-2.05
835.715	67.58
835.898	6.14
836.082	-79.87
836.265	-32.77
836.449	59.39
836.632	16.38
836.815	77.82
836.999	-26.62
837.182	32.77
837.365	38.91
837.549	108.54
837.732	6.14
837.915	47.1
838.099	49.15
838.282	30.72
838.465	10.24
838.648	53.25
838.832	-43.01
839.015	-30.72
839.198	-57.34
839.381	61.44
839.565	55.3
839.748	6.14
839.931	81.92
840.114	65.53
840.297	-20.48
840.48	30.72
840.663	348.15
840.847	2428.89
841.03	1904.61
841.213	47.1
841.396	157.69
841.579	75.77
841.762	155.65
841.945	-51.2
842.128	147.45
842.311	2516.95
842.494	3962.82
842.677	1136.62
842.86	425.98
843.043	784.37
843.226	387.07
843.409	43.01
843.592	-55.3
843.775	18.43
843.958	-28.67
844.141	-18.43
844.323	45.06
844.506	71.68
844.689	-28.67
844.872	32.77
845.055	47.1
845.238	10.24
845.42	55.3
845.603	96.25
845.786	-28.67
845.969	-4.1
846.152	-59.39
846.334	16.38
846.517	-59.39
846.7	14.34
846.883	28.67
847.065	108.54
847.248	-129.02
847.431	92.16
847.613	24.58
847.796	36.86
847.979	104.45
848.161	36.86
848.344	47.1
848.526	81.92
848.709	-2.05
848.892	49.15
849.074	-16.38
849.257	-49.15
849.439	26.62
849.622	-67.58
849.804	-12.29
849.987	-30.72
850.169	67.58
850.352	-6.14
850.534	-26.62
850.717	157.69
850.899	20.48
851.082	51.2
851.264	-28.67
851.446	28.67
851.629	53.25
851.811	-12.29
851.994	61.44
852.176	-57.34
852.358	-36.86
852.541	12.29
852.723	90.11
852.905	-36.86
853.088	38.91
853.27	-2.05
853.452	92.16
853.635	14.34
853.817	4.1
853.999	63.49
854.181	24.58
854.363	73.73
854.546	59.39
854.728	104.45
854.91	-10.24
855.092	34.82
855.274	8.19
855.457	-22.53
855.639	-0
855.821	75.77
856.003	63.49
856.185	94.21
856.367	-28.67
856.549	38.91
856.731	38.91
856.913	-20.48
857.095	-12.29
857.277	61.44
857.459	43.01
857.641	-61.44
857.823	26.62
858.005	-55.3
858.187	-161.79
858.369	-67.58
858.551	-30.72
858.733	-49.15
858.915	30.72
859.097	-6.14
859.279	-4.1
859.461	8.19
859.643	-55.3
859.824	-71.68
860.006	45.06
860.188	4.1
860.37	55.3
860.552	-75.77
860.734	26.62
860.915	-8.19
861.097	-18.43
861.279	30.72
861.461	-8.19
861.642	-14.34
861.824	75.77
862.006	59.39
862.188	16.38
862.369	-71.68
862.551	96.25
862.733	67.58
862.914	-28.67
863.096	4.1
863.278	10.24
863.459	-83.97
863.641	47.1
863.822	16.38
864.004	22.53
864.185	73.73
864.367	-32.77
864.549	-55.3
864.73	26.62
864.912	43.01
865.093	-8.19
865.275	-43.01
865.456	88.06
865.638	32.77
865.819	86.01
866.001	12.29
866.182	40.96
866.363	10.24
866.545	79.87
866.726	-8.19
866.908	20.48
867.089	10.24
867.27	-75.77
867.452	26.62
867.633	-12.29
867.814	-2.05
867.996	16.38
868.177	102.4
868.358	-6.14
868.54	30.72
868.721	38.91
868.902	-30.72
869.083	61.44
869.265	65.53
869.446	8.19
869.627	-8.19
869.808	-30.72
869.989	28.67
870.171	-6.14
870.352	-16.38
870.533	-12.29
870.714	12.29
870.895	26.62
871.076	10.24
871.257	36.86
871.438	-81.92
871.619	-108.54
871.801	22.53
871.982	-20.48
872.163	-43.01
872.344	10.24
872.525	-6.14
872.706	-32.77
872.887	32.77
873.068	10.24
873.249	34.82
873.43	-126.97
873.61	65.54
873.791	36.86
873.972	-106.49
874.153	86.01
874.334	-83.97
874.515	43.01
874.696	40.96
874.877	65.54
875.058	20.48
875.238	75.77
875.419	141.31
875.6	57.34
875.781	-34.82
875.962	-20.48
876.142	-2.05
876.323	-81.92
876.504	88.06
876.685	24.58
876.865	59.39
877.046	-12.29
877.227	90.11
877.407	-45.06
877.588	0
877.769	10.24
877.949	-16.38
878.13	65.53
878.311	94.21
878.491	8.19
878.672	14.34
878.853	100.35
879.033	-12.29
879.214	-49.15
879.394	34.82
879.575	12.29
879.755	-47.1
879.936	71.68
880.116	-49.15
880.297	20.48
880.477	-28.67
880.658	-14.34
880.838	-0
881.019	16.38
881.199	-2.05
881.38	-18.43
881.56	-4.1
881.74	65.53
881.921	-14.34
882.101	-8.19
882.281	96.25
882.462	14.34
882.642	51.2
882.822	-75.77
883.003	47.1
883.183	24.58
883.363	20.48
883.544	8.19
883.724	155.65
883.904	38.91
884.084	49.15
884.265	-10.24
884.445	45.06
884.625	-61.44
884.805	77.82
884.985	-43.01
885.166	-36.86
885.346	-0
885.526	24.58
885.706	-8.19
885.886	55.3
886.066	-2.05
886.246	81.92
886.426	65.54
886.606	-38.91
886.787	18.43
886.967	10.24
887.147	88.06
887.327	16.38
887.507	120.83
887.687	-30.72
887.867	-75.77
888.047	-61.44
888.227	-43.01
888.406	-16.38
888.586	-43.01
888.766	104.45
888.946	-79.87
889.126	77.82
889.306	32.77
889.486	-49.15
889.666	67.58
889.846	106.49
890.025	81.92
890.205	108.54
890.385	-38.91
890.565	14.34
890.745	73.73
890.924	69.63
891.104	-86.01
891.284	43.01
891.464	-86.01
891.643	79.87
891.823	-18.43
892.003	53.25
892.183	92.16
892.362	20.48
892.542	32.77
892.722	-40.96
892.901	-12.29
893.081	-71.68
893.26	-38.91
893.44	-40.96
893.62	90.11
893.799	-40.96
893.979	-32.77
894.158	34.82
894.338	18.43
894.517	-38.91
894.697	53.25
894.877	32.77
895.056	-133.12
895.236	-81.92
895.415	-20.48
895.594	40.96
895.774	4.1
895.953	14.34
896.133	49.15
896.312	45.06
896.492	65.53
896.671	-114.69
896.85	-92.16
897.03	34.82
897.209	-34.82
897.388	104.45
897.568	10.24
897.747	26.62
897.926	0
898.106	-96.25
898.285	-45.06
898.464	47.1
898.643	-8.19
898.823	-2.05
899.002	57.34
899.181	67.58
899.36	83.97
899.54	-38.91
899.719	51.2
899.898	-12.29
900.077	49.15
900.256	159.74
900.435	57.34
900.614	-157.69
900.794	-63.49
900.973	-96.25
901.152	10.24
901.331	24.58
901.51	92.16
901.689	14.34
901.868	8.19
902.047	-6.14
902.226	-43.01
902.405	-75.77
902.584	90.11
902.763	-40.96
902.942	-51.2
903.121	73.73
903.3	90.11
903.479	38.91
903.658	28.67
903.837	24.58
904.015	45.06
904.194	-90.11
904.373	24.58
904.552	112.64
904.731	-22.53
904.91	34.82
905.089	20.48
905.267	36.86
905.446	129.02
905.625	30.72
905.804	-0
905.982	14.34
906.161	8.19
906.34	-55.3
906.519	163.84
906.697	-10.24
906.876	20.48
907.055	4.1
907.233	-26.62
907.412	-69.63
907.591	-4.1
907.769	55.3
907.948	-26.62
908.127	124.93
908.305	-10.24
908.484	45.06
908.662	-2.05
908.841	-26.62
909.019	10.24
909.198	61.44
909.377	28.67
909.555	-16.38
909.734	98.3
909.912	22.53
910.09	22.53
910.269	-57.34
910.447	-53.25
910.626	131.07
910.804	-34.82
910.983	110.59
911.161	-34.82
911.339	-14.34
911.518	-45.06
911.696	40.96
911.875	73.73
912.053	45.06
912.231	14.34
912.41	28.67
912.588	-16.38
912.766	24.58
912.944	-22.53
913.123	40.96
913.301	-26.62
913.479	-4.1
913.657	-8.19
913.836	-22.53
914.014	71.68
914.192	45.06
914.37	-2.05
914.548	34.82
914.727	38.91
914.905	10.24
915.083	149.5
915.261	22.53
915.439	110.59
915.617	-10.24
915.795	-36.86
915.973	-47.1
916.151	14.34
916.329	36.86
916.508	-65.54
916.686	-20.48
916.864	79.87
917.042	38.91
917.22	30.72
917.398	67.58
917.575	-32.77
917.753	-30.72
917.931	2.05
918.109	22.53
918.287	-34.82
918.465	135.17
918.643	32.77
918.821	59.39
918.999	34.82
919.177	43.01
919.354	-153.6
919.532	59.39
919.71	-55.3
919.888	38.91
920.066	59.39
920.243	86.01
920.421	81.92
920.599	28.67
920.777	88.06
920.954	6.14
921.132	-102.4
921.31	59.39
921.488	30.72
921.665	8.19
921.843	-53.25
922.021	28.67
922.198	-20.48
922.376	90.11
922.553	36.86
922.731	-65.53
922.909	88.06
923.086	45.06
923.264	36.86
923.441	12.29
923.619	88.06
923.796	22.53
923.974	59.39
924.152	26.62
924.329	57.34
924.507	-40.96
924.684	106.49
924.861	24.58
925.039	34.82
925.216	20.48
925.394	-61.44
925.571	-2.05
925.749	79.87
925.926	12.29
926.103	59.39
926.281	53.25
926.458	-24.58
926.635	10.24
926.813	75.77
926.99	14.34
927.167	-6.14
927.345	-8.19
927.522	-18.43
927.699	8.19
927.876	92.16
928.054	-10.24
928.231	106.49
928.408	12.29
928.585	61.44
928.763	-34.82
928.94	61.44
929.117	-79.87
929.294	-8.19
929.471	-8.19
929.648	81.92
929.825	88.06
930.003	55.3
930.18	47.1
930.357	22.53
930.534	-40.96
930.711	22.53
930.888	49.15
931.065	16.38
931.242	-32.77
931.419	-49.15
931.596	83.97
931.773	-4.1
931.95	22.53
932.127	51.2
932.304	30.72
932.481	-10.24
932.658	-2.05
932.835	-40.96
933.011	-24.58
933.188	-69.63
933.365	40.96
933.542	24.58
933.719	-10.24
933.896	-10.24
934.073	49.15
934.249	0
934.426	59.39
934.603	-38.91
934.78	-22.53
934.957	45.06
935.133	49.15
935.31	24.58
935.487	118.78
935.664	-51.2
935.84	96.25
936.017	-79.87
936.194	57.34
936.37	4.1
936.547	57.34
936.724	94.21
936.9	83.97
937.077	-81.92
937.253	69.63
937.43	26.62
937.607	38.91
937.783	116.73
937.96	-24.58
938.136	-71.68
938.313	24.58
938.489	-10.24
938.666	36.86
938.842	-116.73
939.019	-4.1
939.195	-90.11
939.372	90.11
939.548	-10.24
939.725	32.77
939.901	-28.67
940.077	32.77
940.254	-159.74
940.43	-55.3
940.607	28.67
940.783	40.96
940.959	-2.05
941.136	-2.05
941.312	6.14
941.488	-14.34
941.665	-8.19
941.841	69.63
942.017	-8.19
942.193	63.49
942.37	67.58
942.546	-18.43
942.722	30.72
942.898	-2.05
943.074	6.14
943.251	79.87
943.427	4.1
943.603	34.82
943.779	16.38
943.955	32.77
944.131	-98.3
944.308	6.14
944.484	75.77
944.66	94.21
944.836	22.53
945.012	51.2
945.188	-16.38
945.364	88.06
945.54	22.53
945.716	-38.91
945.892	40.96
946.068	38.91
946.244	16.38
946.42	59.39
946.596	-61.44
946.772	10.24
946.948	-32.77
947.124	47.1
947.3	18.43
947.475	-2.05
947.651	-55.3
947.827	-12.29
948.003	4.1
948.179	88.06
948.355	102.4
948.531	83.97
948.706	-49.15
948.882	40.96
949.058	57.34
949.234	2.05
949.409	-51.2
949.585	67.58
949.761	71.68
949.937	30.72
950.112	45.06
950.288	12.29
950.464	32.77
950.639	30.72
950.815	90.11
950.991	32.77
951.166	-57.34
951.342	-2.05
951.518	12.29
951.693	-24.58
951.869	-16.38
952.044	-16.38
952.22	-6.14
952.395	-30.72
952.571	4.1
952.747	-24.58
952.922	30.72
953.098	-26.62
953.273	-51.2
953.448	36.86
953.624	4.1
953.799	-32.77
953.975	-2.05
954.15	-63.49
954.326	22.53
954.501	-55.3
954.676	104.45
954.852	59.39
955.027	124.93
955.203	-40.96
955.378	69.63
955.553	34.82
955.729	16.38
955.904	-108.54
956.079	-47.1
956.254	-53.25
956.43	55.3
956.605	40.96
956.78	-24.58
956.955	10.24
957.131	104.45
957.306	61.44
957.481	-22.53
957.656	-10.24
957.831	26.62
958.007	-51.2
958.182	92.16
958.357	2.05
958.532	-14.34
958.707	-61.44
958.882	-12.29
959.057	-4.1
959.232	69.63
959.407	-26.62
959.582	-36.86
959.757	77.82
959.932	-45.06
960.107	-10.24
960.282	92.16
960.457	0
960.632	22.53
960.807	38.91
960.982	-67.58
961.157	86.01
961.332	71.68
961.507	73.73
961.682	-63.49
961.857	-28.67
962.032	4.1
962.206	4.1
962.381	-75.77
962.556	-43.01
962.731	49.15
962.906	-49.15
963.081	-120.83
963.255	53.25
963.43	61.44
963.605	26.62
963.78	12.29
963.954	-22.53
964.129	118.78
964.304	-10.24
964.479	-22.53
964.653	22.53
964.828	-45.06
965.003	-18.43
965.177	0
965.352	-14.34
965.526	55.3
965.701	75.77
965.876	-45.06
966.05	16.38
966.225	30.72
966.399	38.91
966.574	18.43
966.748	40.96
966.923	-4.1
967.098	4.1
967.272	-61.44
967.446	-26.62
967.621	2.05
967.795	49.15
967.97	-16.38
968.144	49.15
968.319	14.34
968.493	-8.19
968.668	-59.39
968.842	14.34
969.016	26.62
969.191	-18.43
969.365	38.91
969.539	-49.15
969.714	45.06
969.888	98.3
970.062	-45.06
970.237	4.1
970.411	-88.06
970.585	18.43
970.759	-22.53
970.934	18.43
971.108	-10.24
971.282	-53.25
971.456	-8.19
971.63	-28.67
971.805	34.82
971.979	-28.67
972.153	-16.38
972.327	98.3
972.501	-14.34
972.675	53.25
972.849	-38.91
973.024	-10.24
973.198	36.86
973.372	22.53
973.546	28.67
973.72	8.19
973.894	45.06
974.068	12.29
974.242	-28.67
974.416	-22.53
974.59	-26.62
974.764	8.19
974.938	-30.72
975.112	-34.82
975.286	79.87
975.46	-2.05
975.633	18.43
975.807	-14.34
975.981	-14.34
976.155	-43.01
976.329	-53.25
976.503	49.15
976.677	-6.14
976.85	86.01
977.024	-65.54
977.198	2.05
977.372	-12.29
977.546	-69.63
977.719	26.62
977.893	-149.5
978.067	-122.88
978.241	-30.72
978.414	98.3
978.588	22.53
978.762	96.25
978.935	71.68
979.109	-45.06
979.283	43.01
979.456	116.73
979.63	0
979.804	20.48
979.977	16.38
980.151	12.29
980.324	-16.38
980.498	4.1
980.671	12.29
980.845	18.43
981.018	-53.25
981.192	28.67
981.365	-24.58
981.539	-47.1
981.712	-4.1
981.886	110.59
982.059	-26.62
982.233	-2.05
982.406	4.1
982.58	57.34
982.753	-0
982.926	59.39
983.1	90.11
983.273	65.53
983.446	-20.48
983.62	-28.67
983.793	67.58
983.966	-43.01
984.14	24.58
984.313	106.49
984.486	65.53
984.66	22.53
984.833	20.48
985.006	53.25
985.179	38.91
985.352	20.48
985.526	53.25
985.699	-34.82
985.872	-2.05
986.045	77.82
986.218	16.38
986.391	47.1
986.565	-77.82
986.738	-0
986.911	-28.67
987.084	102.4
987.257	-43.01
987.43	-32.77
987.603	-32.77
987.776	34.82
987.949	63.49
988.122	71.68
988.295	38.91
988.468	53.25
988.641	-12.29
988.814	24.58
988.987	-10.24
989.16	-45.06
989.333	-53.25
989.506	-18.43
989.679	-47.1
989.852	-20.48
990.025	45.06
990.197	92.16
990.37	90.11
990.543	16.38
990.716	96.25
990.889	-24.58
991.062	20.48
991.234	-47.1
991.407	10.24
991.58	51.2
991.753	-55.3
991.925	69.63
992.098	14.34
992.271	65.53
992.444	-55.3
992.616	10.24
992.789	-2.05
992.962	4.1
993.134	-32.77
993.307	-30.72
993.479	10.24
993.652	-71.68
993.825	122.88
993.997	8.19
994.17	14.34
994.342	49.15
994.515	106.49
994.688	24.58
994.86	-88.06
995.033	30.72
995.205	20.48
995.378	16.38
995.55	67.58
995.723	14.34
995.895	30.72
996.067	-10.24
996.24	28.67
996.412	69.63
996.585	18.43
996.757	96.25
996.929	-43.01
997.102	32.77
997.274	126.97
997.447	-36.86
997.619	-131.07
997.791	-32.77
997.964	77.82
998.136	-20.48
998.308	6.14
998.48	12.29
998.653	47.1
998.825	98.3
998.997	-2.05
999.169	75.77
999.342	12.29
999.514	-79.87
999.686	8.19
999.858	167.93
1000.03	94.21
1000.202	24.58
1000.374	94.21
1000.547	14.34
1000.719	77.82
1000.891	24.58
1001.063	114.69
1001.235	-43.01
1001.407	-22.53
1001.579	10.24
1001.751	94.21
1001.923	30.72
1002.095	67.58
1002.267	-67.58
1002.439	-4.1
1002.611	36.86
1002.783	24.58
1002.955	-40.96
1003.127	34.82
1003.299	-114.69
1003.471	57.34
1003.643	55.3
1003.815	135.17
1003.986	-26.62
1004.158	-88.06
1004.33	-77.82
1004.502	43.01
1004.674	18.43
1004.846	-26.62
1005.017	-8.19
1005.189	49.15
1005.361	28.67
1005.533	122.88
1005.704	-61.44
1005.876	131.07
1006.048	32.77
1006.22	-151.55
1006.391	122.88
1006.563	86.01
1006.735	77.82
1006.906	2.05
1007.078	69.63
1007.25	-2.05
1007.421	90.11
1007.593	22.53
1007.764	20.48
1007.936	30.72
1008.108	30.72
1008.279	2.05
1008.451	-36.86
1008.622	22.53
1008.794	28.67
1008.965	75.77
1009.137	-63.49
1009.308	96.25
1009.48	-14.34
1009.651	24.58
1009.823	-26.62
1009.994	12.29
1010.165	0
1010.337	98.3
1010.508	18.43
1010.68	-22.53
1010.851	-45.06
1011.022	96.25
1011.194	116.73
1011.365	67.58
1011.536	2.05
1011.708	-36.86
1011.879	0
1012.05	-118.78
1012.222	20.48
1012.393	141.31
1012.564	-61.44
1012.735	14.34
1012.906	-24.58
1013.078	40.96
1013.249	-4.1
1013.42	-86.01
1013.591	0
1013.762	88.06
1013.934	-94.21
1014.105	28.67
1014.276	69.63
1014.447	40.96
1014.618	43.01
1014.789	49.15
1014.96	55.3
1015.131	-63.49
1015.302	77.82
1015.473	-4.1
1015.644	53.25
1015.815	-65.54
1015.986	-8.19
1016.157	96.25
1016.328	67.58
1016.499	51.2
1016.67	98.3
1016.841	-12.29
1017.012	-30.72
1017.183	45.06
1017.354	47.1
1017.525	55.3
1017.696	-20.48
1017.867	-20.48
1018.037	-10.24
1018.208	-2.05
1018.379	57.34
1018.55	102.4
1018.721	2.05
1018.891	22.53
1019.062	-10.24
1019.233	-32.77
1019.404	43.01
1019.574	81.92
1019.745	-49.15
1019.916	-10.24
1020.087	88.06
1020.257	-30.72
1020.428	24.58
1020.599	-28.67
1020.769	40.96
1020.94	38.91
1021.11	38.91
1021.281	-6.14
1021.452	69.63
1021.622	20.48
1021.793	26.62
1021.963	34.82
1022.134	2.05
1022.305	14.34
1022.475	20.48
1022.646	75.77
1022.816	24.58
1022.987	-14.34
1023.157	-34.82
1023.327	-10.24
1023.498	26.62
1023.668	-16.38
1023.839	114.69
1024.009	79.87
1024.18	-112.64
1024.35	79.87
1024.52	-6.14
1024.691	-20.48
1024.861	47.1
1025.031	-2.05
1025.202	18.43
1025.372	63.49
1025.542	-30.72
1025.713	55.3
1025.883	-81.92
1026.053	-90.11
1026.223	2.05
1026.394	-59.39
1026.564	-32.77
1026.734	47.1
1026.904	79.87
1027.074	-6.14
1027.245	0
1027.415	-4.1
1027.585	-83.97
1027.755	-2.05
1027.925	-12.29
1028.095	20.48
1028.265	-22.53
1028.435	-30.72
1028.606	4.1
1028.776	6.14
1028.946	65.54
1029.116	-59.39
1029.286	30.72
1029.456	165.89
1029.626	47.1
1029.796	-16.38
1029.966	30.72
1030.136	18.43
1030.306	-90.11
1030.475	145.41
1030.645	-26.62
1030.815	-67.58
1030.985	49.15
1031.155	8.19
1031.325	-2.05
1031.495	75.77
1031.665	4.1
1031.835	-16.38
1032.004	-4.1
1032.174	-38.91
1032.344	45.06
1032.514	57.34
1032.684	94.21
1032.853	81.92
1033.023	8.19
1033.193	90.11
1033.362	22.53
1033.532	14.34
1033.702	112.64
1033.872	8.19
1034.041	77.82
1034.211	-73.73
1034.381	14.34
1034.55	20.48
1034.72	-20.48
1034.889	57.34
1035.059	-43.01
1035.229	47.1
1035.398	16.38
1035.568	53.25
1035.737	40.96
1035.907	-20.48
1036.076	47.1
1036.246	-20.48
1036.415	-4.1
1036.585	18.43
1036.754	-0
1036.924	10.24
1037.093	-129.02
1037.263	2.05
1037.432	-61.44
1037.601	8.19
1037.771	53.25
1037.94	-36.86
1038.11	-47.1
1038.279	-2.05
1038.448	-14.34
1038.618	34.82
1038.787	92.16
1038.956	-83.97
1039.126	86.01
1039.295	49.15
1039.464	-34.82
1039.633	-12.29
1039.803	-24.58
1039.972	104.45
1040.141	-30.72
1040.31	4.1
1040.479	100.35
1040.649	-4.1
1040.818	32.77
1040.987	-81.92
1041.156	114.69
1041.325	-14.34
1041.494	-40.96
1041.663	75.77
1041.833	34.82
1042.002	26.62
1042.171	8.19
1042.34	43.01
1042.509	69.63
1042.678	-69.63
