Data from Subt2_10-23-12-859.txt Node
Date: Wed Aug 09 10:23:12 EDT 2023
User: Emmanuel
Spectrometer: USB4A00615
Scans to average: 1
Trigger mode: 4
Integration Time (sec): 2.000000E-2
Electric dark correction enabled: true
Boxcar width: 0
XAxis mode: Wavelengths
Number of Pixels in Spectrum: 3648
>>>>>Begin Spectral Data<<<<<
346.606	-13.82
346.818	-13.82
347.029	-13.82
347.241	-1.54
347.452	107.01
347.664	12.8
347.876	-67.07
348.087	10.75
348.299	113.15
348.51	76.29
348.722	51.71
348.933	-56.83
349.145	-42.5
349.356	-34.3
349.568	-22.02
349.779	10.75
349.991	-52.74
350.202	-81.41
350.414	35.33
350.625	-81.41
350.836	86.53
351.048	41.47
351.259	35.33
351.471	61.95
351.682	-15.87
351.893	-1.54
352.105	90.62
352.316	49.66
352.527	-52.74
352.739	-48.64
352.95	-3.58
353.161	35.33
353.372	-65.02
353.584	8.7
353.795	45.57
354.006	64
354.217	43.52
354.429	-52.74
354.64	51.71
354.851	86.53
355.062	-3.58
355.274	41.47
355.485	8.7
355.696	-15.87
355.907	-30.21
356.118	16.9
356.329	-19.97
356.54	129.53
356.752	-91.65
356.963	2.56
357.174	35.33
357.385	-50.69
357.596	-75.26
357.807	-7.68
358.018	-75.26
358.229	-7.68
358.44	35.33
358.651	-62.98
358.862	33.28
359.073	10.75
359.284	-103.93
359.495	-11.78
359.706	2.56
359.917	-13.82
360.128	-122.37
360.339	-17.92
360.55	72.19
360.761	78.33
360.972	49.66
361.182	-81.41
361.393	-77.31
361.604	12.8
361.815	-83.45
362.026	8.7
362.237	10.75
362.447	-83.45
362.658	-30.21
362.869	-48.64
363.08	-24.06
363.291	47.62
363.501	25.09
363.712	-30.21
363.923	-30.21
364.134	-54.78
364.344	25.09
364.555	53.76
364.766	33.28
364.976	-65.02
365.187	92.67
365.398	14.85
365.608	0.51
365.819	0.51
366.03	23.04
366.24	143.87
366.451	31.23
366.662	80.38
366.872	66.05
367.083	35.33
367.293	-17.92
367.504	96.77
367.714	31.23
367.925	-22.02
368.135	-44.54
368.346	-5.63
368.557	-38.4
368.767	64
368.977	47.62
369.188	45.57
369.398	25.09
369.609	-19.97
369.819	-13.82
370.03	-9.73
370.24	37.38
370.451	-15.87
370.661	43.52
370.871	-30.21
371.082	-15.87
371.292	-32.26
371.502	-58.88
371.713	12.8
371.923	-15.87
372.133	8.7
372.344	-5.63
372.554	-13.82
372.764	-73.21
372.975	-54.78
373.185	53.76
373.395	-15.87
373.605	43.52
373.816	94.72
374.026	-5.63
374.236	-5.63
374.446	72.19
374.656	39.42
374.867	-75.26
375.077	90.62
375.287	51.71
375.497	51.71
375.707	-83.45
375.917	43.52
376.127	14.85
376.338	29.18
376.548	72.19
376.758	-77.31
376.968	51.71
377.178	-30.21
377.388	4.61
377.598	-56.83
377.808	-124.41
378.018	-9.73
378.228	-122.37
378.438	-42.5
378.648	18.94
378.858	27.14
379.068	78.33
379.278	76.29
379.488	37.38
379.698	-77.31
379.908	-28.16
380.118	-122.37
380.327	51.71
380.537	51.71
380.747	-7.68
380.957	4.61
381.167	49.66
381.377	-62.98
381.587	-56.83
381.796	47.62
382.006	18.94
382.216	-60.93
382.426	-17.92
382.636	61.95
382.845	-89.6
383.055	-83.45
383.265	100.86
383.475	-13.82
383.684	45.57
383.894	-13.82
384.104	-1.54
384.313	-151.04
384.523	-32.26
384.733	14.85
384.942	-32.26
385.152	-15.87
385.362	8.7
385.571	18.94
385.781	-11.78
385.991	45.57
386.2	-95.74
386.41	-17.92
386.619	-97.79
386.829	82.43
387.038	-87.55
387.248	-65.02
387.457	29.18
387.667	90.62
387.876	14.85
388.086	47.62
388.295	-85.5
388.505	2.56
388.714	43.52
388.924	-48.64
389.133	23.04
389.343	-77.31
389.552	-134.65
389.762	41.47
389.971	29.18
390.18	43.52
390.39	119.29
390.599	-54.78
390.808	-13.82
391.018	-65.02
391.227	25.09
391.436	57.86
391.646	-36.35
391.855	45.57
392.064	-24.06
392.274	29.18
392.483	10.75
392.692	129.53
392.901	100.86
393.111	43.52
393.32	10.75
393.529	-17.92
393.738	4.61
393.947	41.47
394.157	-9.73
394.366	-15.87
394.575	35.33
394.784	-26.11
394.993	80.38
395.202	53.76
395.411	41.47
395.62	16.9
395.83	6.66
396.039	-11.78
396.248	-34.3
396.457	-73.21
396.666	137.73
396.875	4.61
397.084	49.66
397.293	-28.16
397.502	25.09
397.711	-48.64
397.92	-17.92
398.129	-44.54
398.338	-15.87
398.547	-89.6
398.756	-54.78
398.965	-19.97
399.174	-56.83
399.382	92.67
399.591	-67.07
399.8	59.9
400.009	-22.02
400.218	-17.92
400.427	-19.97
400.636	-19.97
400.844	61.95
401.053	-87.55
401.262	47.62
401.471	20.99
401.68	-9.73
401.888	-52.74
402.097	-22.02
402.306	72.19
402.515	49.66
402.723	-36.35
402.932	-44.54
403.141	-46.59
403.35	-5.63
403.558	-15.87
403.767	-71.17
403.976	-7.68
404.184	-5.63
404.393	57.86
404.602	96.77
404.81	-67.07
405.019	-11.78
405.227	-144.89
405.436	4.61
405.645	47.62
405.853	-114.17
406.062	-24.06
406.27	39.42
406.479	55.81
406.687	-3.58
406.896	-40.45
407.104	-67.07
407.313	10.75
407.521	-5.63
407.73	188.93
407.938	-38.4
408.147	-13.82
408.355	-36.35
408.563	-77.31
408.772	-9.73
408.98	-52.74
409.189	37.38
409.397	14.85
409.605	82.43
409.814	-58.88
410.022	80.38
410.23	-22.02
410.439	-22.02
410.647	55.81
410.855	-40.45
411.064	74.24
411.272	-32.26
411.48	2.56
411.688	37.38
411.897	64
412.105	2.56
412.313	-26.11
412.521	55.81
412.73	61.95
412.938	41.47
413.146	-11.78
413.354	59.9
413.562	61.95
413.77	55.81
413.979	-26.11
414.187	-15.87
414.395	-48.64
414.603	131.58
414.811	-69.12
415.019	-1.54
415.227	-30.21
415.435	-77.31
415.643	-87.55
415.851	0.51
416.059	86.53
416.267	8.7
416.475	-67.07
416.683	39.42
416.891	4.61
417.099	92.67
417.307	-114.17
417.515	-97.79
417.723	6.66
417.931	-40.45
418.139	14.85
418.347	-13.82
418.555	-17.92
418.763	-17.92
418.971	-67.07
419.179	35.33
419.386	-15.87
419.594	59.9
419.802	111.1
420.01	-85.5
420.218	14.85
420.426	20.99
420.633	-5.63
420.841	16.9
421.049	-52.74
421.257	20.99
421.464	23.04
421.672	80.38
421.88	-9.73
422.088	121.34
422.295	84.48
422.503	-22.02
422.711	14.85
422.918	-30.21
423.126	-93.69
423.334	-19.97
423.541	-32.26
423.749	45.57
423.956	-13.82
424.164	4.61
424.372	-3.58
424.579	66.05
424.787	74.24
424.994	96.77
425.202	-36.35
425.409	-7.68
425.617	-60.93
425.824	-28.16
426.032	-26.11
426.239	-36.35
426.447	-85.5
426.654	0.51
426.862	-28.16
427.069	-11.78
427.277	55.81
427.484	-15.87
427.692	-40.45
427.899	-83.45
428.106	2.56
428.314	70.14
428.521	-26.11
428.728	-36.35
428.936	-62.98
429.143	4.61
429.351	31.23
429.558	115.2
429.765	-34.3
429.972	-189.95
430.18	-5.63
430.387	45.57
430.594	10.75
430.801	86.53
431.009	-38.4
431.216	33.28
431.423	-9.73
431.63	-71.17
431.838	-26.11
432.045	-24.06
432.252	25.09
432.459	29.18
432.666	41.47
432.873	-48.64
433.081	45.57
433.288	-19.97
433.495	86.53
433.702	70.14
433.909	-69.12
434.116	-56.83
434.323	6.66
434.53	-52.74
434.737	6.66
434.944	43.52
435.151	-7.68
435.358	-69.12
435.565	76.29
435.772	-32.26
435.979	-3.58
436.186	-124.41
436.393	-67.07
436.6	53.76
436.807	2.56
437.014	-112.13
437.221	-79.36
437.428	86.53
437.635	41.47
437.841	102.91
438.048	-19.97
438.255	-32.26
438.462	-42.5
438.669	-34.3
438.876	-7.68
439.082	-34.3
439.289	-17.92
439.496	-17.92
439.703	-26.11
439.91	68.09
440.116	53.76
440.323	68.09
440.53	31.23
440.737	25.09
440.943	-34.3
441.15	76.29
441.357	-15.87
441.563	90.62
441.77	-44.54
441.977	-24.06
442.183	59.9
442.39	-9.73
442.597	-58.88
442.803	-54.78
443.01	4.61
443.216	2.56
443.423	4.61
443.63	-13.82
443.836	-44.54
444.043	64
444.249	-34.3
444.456	10.75
444.662	12.8
444.869	49.66
445.075	-65.02
445.282	-30.21
445.488	-19.97
445.695	-85.5
445.901	96.77
446.107	80.38
446.314	-38.4
446.52	-62.98
446.727	-46.59
446.933	-3.58
447.139	-36.35
447.346	18.94
447.552	-9.73
447.759	12.8
447.965	-9.73
448.171	53.76
448.378	-15.87
448.584	35.33
448.79	16.9
448.996	18.94
449.203	-17.92
449.409	-58.88
449.615	41.47
449.821	-30.21
450.028	14.85
450.234	-46.59
450.44	57.86
450.646	6.66
450.852	35.33
451.059	-48.64
451.265	57.86
451.471	-34.3
451.677	-40.45
451.883	104.96
452.089	-58.88
452.295	-36.35
452.502	-5.63
452.708	-1.54
452.914	64
453.12	-34.3
453.326	-38.4
453.532	8.7
453.738	-5.63
453.944	23.04
454.15	66.05
454.356	-9.73
454.562	47.62
454.768	55.81
454.974	45.57
455.18	-15.87
455.386	27.14
455.592	-17.92
455.798	-22.02
456.003	-67.07
456.209	16.9
456.415	-17.92
456.621	-65.02
456.827	-87.55
457.033	18.94
457.239	8.7
457.444	-1.54
457.65	35.33
457.856	55.81
458.062	-34.3
458.268	25.09
458.473	86.53
458.679	-60.93
458.885	4.61
459.091	-85.5
459.296	14.85
459.502	-3.58
459.708	-95.74
459.914	-71.17
460.119	-22.02
460.325	-22.02
460.531	-177.66
460.736	-93.69
460.942	-11.78
461.147	-60.93
461.353	-13.82
461.559	-58.88
461.764	0.51
461.97	-48.64
462.175	92.67
462.381	-73.21
462.587	-112.13
462.792	27.14
462.998	178.69
463.203	14.85
463.409	16.9
463.614	-17.92
463.82	-22.02
464.025	14.85
464.231	18.94
464.436	-48.64
464.641	45.57
464.847	-60.93
465.052	-151.04
465.258	29.18
465.463	-15.87
465.669	84.48
465.874	53.76
466.079	16.9
466.285	18.94
466.49	-81.41
466.695	-50.69
466.901	0.51
467.106	-15.87
467.311	-30.21
467.516	49.66
467.722	-81.41
467.927	0.51
468.132	-11.78
468.338	53.76
468.543	-50.69
468.748	-26.11
468.953	25.09
469.158	12.8
469.364	27.14
469.569	14.85
469.774	78.33
469.979	16.9
470.184	-26.11
470.389	-3.58
470.594	2.56
470.8	-38.4
471.005	-28.16
471.21	0.51
471.415	-17.92
471.62	-11.78
471.825	45.57
472.03	-118.27
472.235	-13.82
472.44	53.76
472.645	-38.4
472.85	-81.41
473.055	29.18
473.26	-60.93
473.465	31.23
473.67	-42.5
473.875	-56.83
474.08	29.18
474.285	55.81
474.49	70.14
474.695	35.33
474.899	-36.35
475.104	6.66
475.309	-85.5
475.514	66.05
475.719	78.33
475.924	-44.54
476.128	78.33
476.333	-3.58
476.538	-48.64
476.743	-1.54
476.948	-40.45
477.152	25.09
477.357	-24.06
477.562	16.9
477.767	66.05
477.971	86.53
478.176	-38.4
478.381	-73.21
478.585	-30.21
478.79	41.47
478.995	-69.12
479.199	8.7
479.404	-15.87
479.609	-40.45
479.813	78.33
480.018	16.9
480.223	-19.97
480.427	-65.02
480.632	-71.17
480.836	160.25
481.041	-28.16
481.245	6.66
481.45	33.28
481.654	-7.68
481.859	-24.06
482.063	-1.54
482.268	53.76
482.472	84.48
482.677	64
482.881	0.51
483.086	-1.54
483.29	2.56
483.495	4.61
483.699	-19.97
483.903	-67.07
484.108	49.66
484.312	82.43
484.517	86.53
484.721	6.66
484.925	64
485.13	-38.4
485.334	-32.26
485.538	-112.13
485.743	57.86
485.947	59.9
486.151	0.51
486.355	20.99
486.56	57.86
486.764	47.62
486.968	23.04
487.172	39.42
487.377	20.99
487.581	31.23
487.785	-56.83
487.989	125.44
488.193	-60.93
488.397	104.96
488.602	-60.93
488.806	-91.65
489.01	-28.16
489.214	-15.87
489.418	49.66
489.622	8.7
489.826	-56.83
490.03	64
490.234	-3.58
490.438	-48.64
490.642	-32.26
490.846	8.7
491.05	-34.3
491.254	16.9
491.458	-28.16
491.662	-19.97
491.866	-15.87
492.07	-22.02
492.274	2.56
492.478	-13.82
492.682	0.51
492.886	-38.4
493.09	2.56
493.294	-73.21
493.498	-17.92
493.701	-11.78
493.905	8.7
494.109	10.75
494.313	-24.06
494.517	64
494.721	33.28
494.924	-13.82
495.128	-38.4
495.332	-9.73
495.536	-52.74
495.739	-7.68
495.943	-56.83
496.147	10.75
496.351	-93.69
496.554	-58.88
496.758	-34.3
496.962	-19.97
497.165	-65.02
497.369	29.18
497.573	12.8
497.776	51.71
497.98	18.94
498.184	-38.4
498.387	-17.92
498.591	-9.73
498.794	-36.35
498.998	68.09
499.202	-5.63
499.405	-48.64
499.609	6.66
499.812	98.81
500.016	-118.27
500.219	2.56
500.423	64
500.626	37.38
500.83	55.81
501.033	-44.54
501.237	-5.63
501.44	18.94
501.643	-52.74
501.847	31.23
502.05	51.71
502.254	-99.84
502.457	6.66
502.66	47.62
502.864	20.99
503.067	-85.5
503.271	-7.68
503.474	23.04
503.677	-34.3
503.88	-60.93
504.084	-17.92
504.287	-62.98
504.49	-34.3
504.694	-89.6
504.897	-1.54
505.1	-118.27
505.303	43.52
505.507	-50.69
505.71	37.38
505.913	76.29
506.116	31.23
506.319	57.86
506.522	41.47
506.726	-26.11
506.929	33.28
507.132	-17.92
507.335	2.56
507.538	-30.21
507.741	12.8
507.944	-124.41
508.147	2.56
508.35	-62.98
508.553	-60.93
508.756	-17.92
508.959	39.42
509.163	4.61
509.366	-9.73
509.569	-44.54
509.771	8.7
509.974	-91.65
510.177	-9.73
510.38	55.81
510.583	-17.92
510.786	-11.78
510.989	-46.59
511.192	27.14
511.395	-60.93
511.598	70.14
511.801	18.94
512.004	-7.68
512.206	31.23
512.409	-71.17
512.612	-17.92
512.815	35.33
513.018	33.28
513.22	27.14
513.423	-9.73
513.626	-95.74
513.829	-71.17
514.032	4.61
514.234	-58.88
514.437	-69.12
514.64	53.76
514.842	8.7
515.045	-89.6
515.248	82.43
515.45	-9.73
515.653	-69.12
515.856	-38.4
516.058	-28.16
516.261	-9.73
516.464	-73.21
516.666	33.28
516.869	-50.69
517.071	-32.26
517.274	8.7
517.477	43.52
517.679	6.66
517.882	25.09
518.084	6.66
518.287	-9.73
518.489	82.43
518.692	-56.83
518.894	25.09
519.097	4.61
519.299	-52.74
519.501	-38.4
519.704	51.71
519.906	35.33
520.109	47.62
520.311	-40.45
520.514	-30.21
520.716	37.38
520.918	-17.92
521.121	-19.97
521.323	68.09
521.525	-9.73
521.728	-5.63
521.93	-32.26
522.132	-42.5
522.335	-1.54
522.537	0.51
522.739	27.14
522.941	-3.58
523.144	23.04
523.346	-38.4
523.548	-3.58
523.75	-30.21
523.952	14.85
524.155	-15.87
524.357	16.9
524.559	78.33
524.761	-1.54
524.963	10.75
525.165	-75.26
525.368	-73.21
525.57	-34.3
525.772	98.81
525.974	4.61
526.176	94.72
526.378	72.19
526.58	-1.54
526.782	18.94
526.984	-71.17
527.186	57.86
527.388	-62.98
527.59	-44.54
527.792	-65.02
527.994	92.67
528.196	72.19
528.398	-114.17
528.6	-36.35
528.802	18.94
529.004	-52.74
529.206	14.85
529.408	-36.35
529.609	78.33
529.811	64
530.013	57.86
530.215	31.23
530.417	2.56
530.619	-36.35
530.821	-17.92
531.022	158.21
531.224	0.51
531.426	-60.93
531.628	37.38
531.829	-44.54
532.031	25.09
532.233	20.99
532.435	53.76
532.636	57.86
532.838	27.14
533.04	39.42
533.241	39.42
533.443	-5.63
533.645	-11.78
533.846	41.47
534.048	-24.06
534.25	47.62
534.451	14.85
534.653	25.09
534.855	16.9
535.056	137.73
535.258	82.43
535.459	-69.12
535.661	-17.92
535.862	-11.78
536.064	33.28
536.265	-62.98
536.467	29.18
536.668	61.95
536.87	92.67
537.071	35.33
537.273	-30.21
537.474	12.8
537.676	4.61
537.877	-42.5
538.078	-15.87
538.28	-30.21
538.481	-11.78
538.683	61.95
538.884	156.16
539.085	-93.69
539.287	-60.93
539.488	39.42
539.689	35.33
539.891	49.66
540.092	25.09
540.293	-34.3
540.495	-9.73
540.696	10.75
540.897	8.7
541.098	0.51
541.3	-40.45
541.501	39.42
541.702	27.14
541.903	51.71
542.104	-26.11
542.306	31.23
542.507	-87.55
542.708	94.72
542.909	72.19
543.11	18.94
543.311	23.04
543.512	-56.83
543.713	23.04
543.915	102.91
544.116	-28.16
544.317	-42.5
544.518	-26.11
544.719	-77.31
544.92	-28.16
545.121	27.14
545.322	8.7
545.523	76.29
545.724	74.24
545.925	-48.64
546.126	66.05
546.327	49.66
546.528	-28.16
546.729	-62.98
546.929	-75.26
547.13	57.86
547.331	-157.18
547.532	-32.26
547.733	82.43
547.934	-19.97
548.135	-15.87
548.336	70.14
548.536	-13.82
548.737	-87.55
548.938	43.52
549.139	-3.58
549.34	14.85
549.54	-56.83
549.741	12.8
549.942	-17.92
550.143	2.56
550.343	-161.28
550.544	29.18
550.745	6.66
550.945	-75.26
551.146	23.04
551.347	-54.78
551.547	-36.35
551.748	-50.69
551.949	-38.4
552.149	-15.87
552.35	-50.69
552.551	-75.26
552.751	6.66
552.952	74.24
553.152	37.38
553.353	-58.88
553.553	18.94
553.754	-46.59
553.954	23.04
554.155	-71.17
554.356	-15.87
554.556	-36.35
554.756	-26.11
554.957	143.87
555.157	27.14
555.358	-3.58
555.558	76.29
555.759	45.57
555.959	-9.73
556.159	-30.21
556.36	33.28
556.56	31.23
556.761	45.57
556.961	-7.68
557.161	-67.07
557.362	27.14
557.562	-97.79
557.762	8.7
557.963	8.7
558.163	-36.35
558.363	-60.93
558.563	-9.73
558.764	-60.93
558.964	84.48
559.164	104.96
559.364	-5.63
559.565	-13.82
559.765	47.62
559.965	12.8
560.165	-52.74
560.365	49.66
560.565	-9.73
560.766	2.56
560.966	-58.88
561.166	-19.97
561.366	41.47
561.566	-99.84
561.766	-73.21
561.966	-22.02
562.166	57.86
562.366	-22.02
562.566	-28.16
562.766	-13.82
562.966	104.96
563.166	-26.11
563.366	31.23
563.566	23.04
563.766	-85.5
563.966	20.99
564.166	33.28
564.366	-30.21
564.566	2.56
564.766	-15.87
564.966	-75.26
565.166	-22.02
565.366	-3.58
565.565	131.58
565.765	-83.45
565.965	-34.3
566.165	33.28
566.365	-40.45
566.565	-62.98
566.764	86.53
566.964	47.62
567.164	16.9
567.364	-32.26
567.564	51.71
567.763	-116.22
567.963	-9.73
568.163	-34.3
568.362	-81.41
568.562	33.28
568.762	-48.64
568.961	16.9
569.161	4.61
569.361	-3.58
569.56	-7.68
569.76	6.66
569.96	-13.82
570.159	55.81
570.359	51.71
570.558	45.57
570.758	100.86
570.958	-15.87
571.157	-11.78
571.357	-81.41
571.556	-22.02
571.756	51.71
571.955	-34.3
572.155	-7.68
572.354	-15.87
572.554	72.19
572.753	-34.3
572.953	-1.54
573.152	4.61
573.351	115.2
573.551	-5.63
573.75	8.7
573.95	53.76
574.149	41.47
574.348	-1.54
574.548	8.7
574.747	-48.64
574.946	109.05
575.146	-22.02
575.345	72.19
575.544	27.14
575.744	-19.97
575.943	-50.69
576.142	-19.97
576.342	-81.41
576.541	115.2
576.74	-95.74
576.939	0.51
577.138	29.18
577.338	-5.63
577.537	-32.26
577.736	31.23
577.935	-17.92
578.134	-3.58
578.333	14.85
578.533	-7.68
578.732	0.51
578.931	18.94
579.13	-192
579.329	-24.06
579.528	4.61
579.727	41.47
579.926	-54.78
580.125	27.14
580.324	-5.63
580.523	-40.45
580.722	-108.03
580.921	-15.87
581.12	10.75
581.319	-13.82
581.518	68.09
581.717	14.85
581.916	35.33
582.115	-122.37
582.314	47.62
582.513	-95.74
582.712	8.7
582.911	-22.02
583.109	53.76
583.308	-62.98
583.507	-71.17
583.706	-101.89
583.905	-52.74
584.104	31.23
584.302	-11.78
584.501	-32.26
584.7	-67.07
584.899	23.04
585.098	-40.45
585.296	47.62
585.495	16.9
585.694	68.09
585.892	61.95
586.091	-1.54
586.29	-58.88
586.488	66.05
586.687	-116.22
586.886	-3.58
587.084	-30.21
587.283	-26.11
587.482	-81.41
587.68	41.47
587.879	-50.69
588.077	4.61
588.276	-3.58
588.475	57.86
588.673	49.66
588.872	16.9
589.07	0.51
589.269	8.7
589.467	-22.02
589.666	2.56
589.864	20.99
590.063	59.9
590.261	49.66
590.46	6.66
590.658	18.94
590.857	-112.13
591.055	41.47
591.253	-7.68
591.452	-108.03
591.65	-73.21
591.848	-30.21
592.047	-54.78
592.245	-9.73
592.444	-24.06
592.642	43.52
592.84	-19.97
593.038	45.57
593.237	6.66
593.435	-58.88
593.633	2.56
593.832	-177.66
594.03	-36.35
594.228	-17.92
594.426	0.51
594.624	-46.59
594.823	25.09
595.021	-50.69
595.219	-11.78
595.417	37.38
595.615	-19.97
595.813	-38.4
596.012	-3.58
596.21	-65.02
596.408	8.7
596.606	-85.5
596.804	20.99
597.002	10.75
597.2	4.61
597.398	-36.35
597.596	-69.12
597.794	64
597.992	-46.59
598.19	82.43
598.388	-13.82
598.586	-13.82
598.784	-3.58
598.982	-38.4
599.18	-52.74
599.378	-5.63
599.576	-42.5
599.774	12.8
599.972	-26.11
600.17	23.04
600.368	-24.06
600.565	49.66
600.763	-46.59
600.961	12.8
601.159	-32.26
601.357	-9.73
601.555	-30.21
601.752	-1.54
601.95	6.66
602.148	-65.02
602.346	-118.27
602.544	2.56
602.741	31.23
602.939	-87.55
603.137	41.47
603.334	-9.73
603.532	-34.3
603.73	2.56
603.927	127.49
604.125	8.7
604.323	-24.06
604.52	96.77
604.718	-77.31
604.916	6.66
605.113	35.33
605.311	-54.78
605.508	-26.11
605.706	41.47
605.904	2.56
606.101	41.47
606.299	-5.63
606.496	25.09
606.694	-26.11
606.891	12.8
607.089	41.47
607.286	76.29
607.484	-1.54
607.681	-11.78
607.879	29.18
608.076	-75.26
608.273	35.33
608.471	18.94
608.668	27.14
608.866	-28.16
609.063	-5.63
609.26	-50.69
609.458	-71.17
609.655	-26.11
609.852	23.04
610.05	12.8
610.247	-79.36
610.444	-7.68
610.642	-17.92
610.839	51.71
611.036	31.23
611.233	115.2
611.431	-48.64
611.628	-1.54
611.825	29.18
612.022	45.57
612.22	59.9
612.417	-26.11
612.614	12.8
612.811	-58.88
613.008	-126.46
613.205	31.23
613.402	45.57
613.6	57.86
613.797	25.09
613.994	-54.78
614.191	-122.37
614.388	-60.93
614.585	20.99
614.782	35.33
614.979	47.62
615.176	-75.26
615.373	-62.98
615.57	96.77
615.767	98.81
615.964	20.99
616.161	-5.63
616.358	-13.82
616.555	-5.63
616.752	-22.02
616.949	-9.73
617.146	-19.97
617.343	88.57
617.539	31.23
617.736	-22.02
617.933	-93.69
618.13	-99.84
618.327	27.14
618.524	143.87
618.721	-67.07
618.917	-7.68
619.114	12.8
619.311	43.52
619.508	47.62
619.704	53.76
619.901	27.14
620.098	47.62
620.295	33.28
620.491	-17.92
620.688	-32.26
620.885	-22.02
621.081	-75.26
621.278	18.94
621.475	-120.32
621.671	74.24
621.868	66.05
622.065	51.71
622.261	-81.41
622.458	25.09
622.655	-30.21
622.851	-155.13
623.048	109.05
623.244	-148.99
623.441	80.38
623.637	-11.78
623.834	61.95
624.03	-36.35
624.227	-69.12
624.423	25.09
624.62	4.61
624.816	25.09
625.013	-26.11
625.209	100.86
625.406	10.75
625.602	61.95
625.798	-40.45
625.995	-118.27
626.191	-132.61
626.388	-159.23
626.584	27.14
626.78	53.76
626.977	53.76
627.173	-11.78
627.369	-36.35
627.566	-85.5
627.762	-19.97
627.958	113.15
628.154	-26.11
628.351	49.66
628.547	-32.26
628.743	-44.54
628.939	-34.3
629.136	-56.83
629.332	14.85
629.528	-36.35
629.724	-62.98
629.92	-58.88
630.116	39.42
630.313	6.66
630.509	-48.64
630.705	-32.26
630.901	-105.98
631.097	78.33
631.293	45.57
631.489	-48.64
631.685	47.62
631.881	14.85
632.077	70.14
632.273	-42.5
632.469	-34.3
632.665	123.39
632.861	37.38
633.057	-134.65
633.253	-19.97
633.449	-40.45
633.645	-40.45
633.841	-60.93
634.037	-40.45
634.233	41.47
634.429	72.19
634.625	-34.3
634.821	37.38
635.017	45.57
635.212	-46.59
635.408	10.75
635.604	-30.21
635.8	8.7
635.996	-36.35
636.191	-71.17
636.387	-77.31
636.583	59.9
636.779	70.14
636.975	0.51
637.17	37.38
637.366	2.56
637.562	-60.93
637.757	31.23
637.953	-204.28
638.149	23.04
638.345	57.86
638.54	10.75
638.736	-71.17
638.931	-36.35
639.127	-46.59
639.323	-26.11
639.518	55.81
639.714	-38.4
639.909	-58.88
640.105	10.75
640.301	-24.06
640.496	-89.6
640.692	-132.61
640.887	86.53
641.083	18.94
641.278	-19.97
641.474	57.86
641.669	-44.54
641.865	55.81
642.06	12.8
642.256	-32.26
642.451	18.94
642.646	-30.21
642.842	94.72
643.037	12.8
643.233	-11.78
643.428	33.28
643.623	94.72
643.819	-126.46
644.014	31.23
644.209	-112.13
644.405	-128.51
644.6	59.9
644.795	-26.11
644.99	2.56
645.186	35.33
645.381	-34.3
645.576	-5.63
645.771	-5.63
645.967	64
646.162	35.33
646.357	-34.3
646.552	113.15
646.747	23.04
646.943	33.28
647.138	35.33
647.333	16.9
647.528	-19.97
647.723	107.01
647.918	10.75
648.113	-11.78
648.308	8.7
648.504	2.56
648.699	-19.97
648.894	-15.87
649.089	-34.3
649.284	-46.59
649.479	-34.3
649.674	55.81
649.869	64
650.064	2.56
650.259	-54.78
650.454	-28.16
650.649	4.61
650.844	27.14
651.038	-81.41
651.233	-19.97
651.428	-7.68
651.623	-48.64
651.818	-93.69
652.013	-13.82
652.208	18.94
652.403	27.14
652.597	-15.87
652.792	-3.58
652.987	-91.65
653.182	45.57
653.377	49.66
653.571	12.8
653.766	33.28
653.961	94.72
654.156	2.56
654.35	31.23
654.545	-13.82
654.74	-46.59
654.935	129.53
655.129	64
655.324	49.66
655.519	29.18
655.713	51.71
655.908	-7.68
656.102	-3.58
656.297	-110.08
656.492	-91.65
656.686	-11.78
656.881	-142.85
657.075	-91.65
657.27	-15.87
657.464	31.23
657.659	-15.87
657.854	-108.03
658.048	-24.06
658.243	-48.64
658.437	-67.07
658.631	-81.41
658.826	8.7
659.02	64
659.215	27.14
659.409	25.09
659.604	-9.73
659.798	-11.78
659.992	45.57
660.187	-101.89
660.381	23.04
660.576	0.51
660.77	33.28
660.964	-65.02
661.159	70.14
661.353	55.81
661.547	-26.11
661.742	-54.78
661.936	-50.69
662.13	-65.02
662.324	18.94
662.519	10.75
662.713	-62.98
662.907	43.52
663.101	-62.98
663.295	74.24
663.49	-17.92
663.684	-17.92
663.878	2.56
664.072	8.7
664.266	-60.93
664.46	92.67
664.654	-30.21
664.849	-44.54
665.043	-44.54
665.237	16.9
665.431	-81.41
665.625	8.7
665.819	-36.35
666.013	45.57
666.207	0.51
666.401	-87.55
666.595	4.61
666.789	-38.4
666.983	145.92
667.177	90.62
667.371	8.7
667.565	78.33
667.759	88.57
667.953	53.76
668.147	6.66
668.34	-71.17
668.534	-67.07
668.728	-112.13
668.922	-54.78
669.116	-134.65
669.31	-19.97
669.504	-46.59
669.697	-11.78
669.891	59.9
670.085	20.99
670.279	113.15
670.473	-118.27
670.666	4.61
670.86	78.33
671.054	-30.21
671.248	14.85
671.441	27.14
671.635	8.7
671.829	-17.92
672.022	4.61
672.216	-62.98
672.41	20.99
672.603	-97.79
672.797	-24.06
672.99	55.81
673.184	-3.58
673.378	-67.07
673.571	-7.68
673.765	-19.97
673.958	-3.58
674.152	80.38
674.345	2.56
674.539	14.85
674.733	-69.12
674.926	47.62
675.12	41.47
675.313	-60.93
675.506	-36.35
675.7	2.56
675.893	-1.54
676.087	-48.64
676.28	16.9
676.474	55.81
676.667	-15.87
676.86	-56.83
677.054	-42.5
677.247	-40.45
677.441	37.38
677.634	111.1
677.827	-22.02
678.02	39.42
678.214	43.52
678.407	-58.88
678.6	4.61
678.794	8.7
678.987	53.76
679.18	-24.06
679.373	-5.63
679.567	-50.69
679.76	8.7
679.953	6.66
680.146	20.99
680.339	-34.3
680.533	-7.68
680.726	64
680.919	-69.12
681.112	-54.78
681.305	-52.74
681.498	49.66
681.691	-30.21
681.884	-28.16
682.077	-24.06
682.271	31.23
682.464	-91.65
682.657	-22.02
682.85	-17.92
683.043	-77.31
683.236	-32.26
683.429	-95.74
683.622	12.8
683.815	18.94
684.008	-19.97
684.201	-99.84
684.393	-1.54
684.586	-69.12
684.779	-52.74
684.972	29.18
685.165	-26.11
685.358	14.85
685.551	-1.54
685.744	-56.83
685.937	-24.06
686.129	4.61
686.322	-73.21
686.515	31.23
686.708	35.33
686.901	27.14
687.093	16.9
687.286	-30.21
687.479	-26.11
687.672	70.14
687.864	-32.26
688.057	-148.99
688.25	-73.21
688.442	-30.21
688.635	47.62
688.828	-40.45
689.02	39.42
689.213	-13.82
689.406	35.33
689.598	-7.68
689.791	59.9
689.984	-34.3
690.176	-28.16
690.369	-38.4
690.561	-15.87
690.754	64
690.946	18.94
691.139	-89.6
691.331	12.8
691.524	29.18
691.716	-112.13
691.909	0.51
692.101	-71.17
692.294	111.1
692.486	-58.88
692.679	-130.56
692.871	31.23
693.063	-50.69
693.256	12.8
693.448	-50.69
693.641	-38.4
693.833	-95.74
694.025	-54.78
694.218	61.95
694.41	43.52
694.602	16.9
694.795	-11.78
694.987	61.95
695.179	-110.08
695.372	4.61
695.564	-5.63
695.756	16.9
695.948	66.05
696.14	-69.12
696.333	-19.97
696.525	-67.07
696.717	-11.78
696.909	57.86
697.101	8.7
697.294	-71.17
697.486	18.94
697.678	45.57
697.87	20.99
698.062	23.04
698.254	-38.4
698.446	33.28
698.638	96.77
698.83	-36.35
699.022	-28.16
699.215	-83.45
699.407	152.06
699.599	59.9
699.791	8.7
699.983	-5.63
700.175	-7.68
700.367	-7.68
700.558	61.95
700.75	-44.54
700.942	-38.4
701.134	-77.31
701.326	-40.45
701.518	51.71
701.71	55.81
701.902	-22.02
702.094	51.71
702.286	12.8
702.477	23.04
702.669	74.24
702.861	-36.35
703.053	82.43
703.245	37.38
703.436	74.24
703.628	6.66
703.82	43.52
704.012	-5.63
704.203	-118.27
704.395	-26.11
704.587	-7.68
704.779	94.72
704.97	-9.73
705.162	27.14
705.354	-56.83
705.545	-9.73
705.737	61.95
705.929	55.81
706.12	-62.98
706.312	-24.06
706.503	59.9
706.695	-46.59
706.887	-9.73
707.078	2.56
707.27	20.99
707.461	-42.5
707.653	-122.37
707.844	-15.87
708.036	-116.22
708.227	45.57
708.419	-9.73
708.61	-28.16
708.802	12.8
708.993	-32.26
709.185	-26.11
709.376	4.61
709.567	18.94
709.759	37.38
709.95	51.71
710.141	6.66
710.333	-155.13
710.524	18.94
710.716	6.66
710.907	10.75
711.098	-13.82
711.289	-5.63
711.481	6.66
711.672	-11.78
711.863	10.75
712.055	14.85
712.246	-46.59
712.437	-32.26
712.628	-75.26
712.82	-52.74
713.011	-75.26
713.202	6.66
713.393	-62.98
713.584	76.29
713.775	2.56
713.967	-65.02
714.158	-99.84
714.349	-7.68
714.54	-3.58
714.731	-32.26
714.922	8.7
715.113	-114.17
715.304	141.82
715.495	-7.68
715.686	-65.02
715.877	45.57
716.068	64
716.259	31.23
716.45	0.51
716.641	-38.4
716.832	-38.4
717.023	-54.78
717.214	76.29
717.405	41.47
717.596	-28.16
717.787	-71.17
717.978	-32.26
718.169	-54.78
718.36	35.33
718.55	39.42
718.741	43.52
718.932	-93.69
719.123	-83.45
719.314	12.8
719.505	-30.21
719.695	-7.68
719.886	-54.78
720.077	-52.74
720.268	-34.3
720.458	0.51
720.649	25.09
720.84	16.9
721.031	-110.08
721.221	31.23
721.412	-71.17
721.603	-52.74
721.793	20.99
721.984	53.76
722.175	92.67
722.365	41.47
722.556	102.91
722.746	-19.97
722.937	-89.6
723.128	74.24
723.318	-65.02
723.509	-19.97
723.699	61.95
723.89	47.62
724.08	53.76
724.271	25.09
724.461	-3.58
724.652	45.57
724.842	41.47
725.033	-3.58
725.223	25.09
725.414	107.01
725.604	-24.06
725.794	33.28
725.985	20.99
726.175	6.66
726.366	-36.35
726.556	23.04
726.746	6.66
726.937	4.61
727.127	-93.69
727.317	-93.69
727.508	-122.37
727.698	31.23
727.888	-17.92
728.079	29.18
728.269	76.29
728.459	-87.55
728.649	12.8
728.84	-32.26
729.03	43.52
729.22	25.09
729.41	2.56
729.6	-24.06
729.791	6.66
729.981	-134.65
730.171	55.81
730.361	-5.63
730.551	-62.98
730.741	-116.22
730.931	-30.21
731.121	6.66
731.311	68.09
731.502	76.29
731.692	-15.87
731.882	76.29
732.072	-26.11
732.262	-103.93
732.452	-11.78
732.642	55.81
732.832	55.81
733.022	-85.5
733.212	-132.61
733.402	16.9
733.591	25.09
733.781	70.14
733.971	-52.74
734.161	-48.64
734.351	8.7
734.541	-120.32
734.731	-136.7
734.921	-44.54
735.111	2.56
735.3	-122.37
735.49	14.85
735.68	23.04
735.87	-52.74
736.06	-65.02
736.249	-28.16
736.439	-118.27
736.629	-19.97
736.819	-15.87
737.008	-48.64
737.198	-11.78
737.388	-44.54
737.577	-54.78
737.767	45.57
737.957	23.04
738.146	-9.73
738.336	-40.45
738.526	18.94
738.715	2.56
738.905	59.9
739.094	90.62
739.284	-24.06
739.474	25.09
739.663	-44.54
739.853	6.66
740.042	0.51
740.232	-65.02
740.421	-28.16
740.611	53.76
740.8	16.9
740.99	27.14
741.179	39.42
741.369	10.75
741.558	43.52
741.748	-15.87
741.937	-93.69
742.126	0.51
742.316	18.94
742.505	-38.4
742.695	-26.11
742.884	111.1
743.073	47.62
743.263	18.94
743.452	10.75
743.641	14.85
743.831	14.85
744.02	-38.4
744.209	0.51
744.398	8.7
744.588	20.99
744.777	-28.16
744.966	66.05
745.155	-140.8
745.345	20.99
745.534	-116.22
745.723	25.09
745.912	-15.87
746.101	-30.21
746.29	-32.26
746.48	-58.88
746.669	-13.82
746.858	43.52
747.047	-71.17
747.236	-9.73
747.425	-93.69
747.614	4.61
747.803	104.96
747.992	25.09
748.181	45.57
748.37	-3.58
748.559	-28.16
748.748	-38.4
748.937	-15.87
749.126	-105.98
749.315	6.66
749.504	10.75
749.693	-91.65
749.882	-32.26
750.071	31.23
750.26	43.52
750.449	-89.6
750.638	-194.05
750.826	-62.98
751.015	-69.12
751.204	-38.4
751.393	33.28
751.582	61.95
751.771	-11.78
751.959	18.94
752.148	45.57
752.337	33.28
752.526	-58.88
752.714	-87.55
752.903	-38.4
753.092	47.62
753.281	41.47
753.469	-13.82
753.658	29.18
753.847	16.9
754.035	14.85
754.224	23.04
754.413	-101.89
754.601	31.23
754.79	-5.63
754.979	55.81
755.167	-13.82
755.356	43.52
755.544	12.8
755.733	57.86
755.921	72.19
756.11	-79.36
756.298	-11.78
756.487	10.75
756.675	-44.54
756.864	-24.06
757.052	-65.02
757.241	-83.45
757.429	-36.35
757.618	-17.92
757.806	78.33
757.995	-48.64
758.183	-73.21
758.371	-167.42
758.56	-34.3
758.748	10.75
758.937	-17.92
759.125	33.28
759.313	8.7
759.502	-48.64
759.69	-19.97
759.878	-81.41
760.066	14.85
760.255	-17.92
760.443	35.33
760.631	-24.06
760.819	4.61
761.008	-101.89
761.196	-19.97
761.384	111.1
761.572	64
761.761	-89.6
761.949	-40.45
762.137	-24.06
762.325	-7.68
762.513	47.62
762.701	-52.74
762.889	55.81
763.077	-56.83
763.266	35.33
763.454	98.81
763.642	-169.47
763.83	43.52
764.018	-60.93
764.206	64
764.394	33.28
764.582	2.56
764.77	49.66
764.958	-19.97
765.146	96.77
765.334	72.19
765.522	70.14
765.71	37.38
765.898	68.09
766.085	-58.88
766.273	78.33
766.461	16.9
766.649	47.62
766.837	-5.63
767.025	35.33
767.213	20.99
767.401	-93.69
767.588	57.86
767.776	-1.54
767.964	49.66
768.152	0.51
768.339	-30.21
768.527	0.51
768.715	-97.79
768.903	-9.73
769.09	-46.59
769.278	-15.87
769.466	43.52
769.654	59.9
769.841	-48.64
770.029	-13.82
770.217	2.56
770.404	-95.74
770.592	-22.02
770.779	-1.54
770.967	-79.36
771.155	45.57
771.342	72.19
771.53	33.28
771.717	47.62
771.905	61.95
772.092	53.76
772.28	115.2
772.467	96.77
772.655	59.9
772.842	-32.26
773.03	119.29
773.217	29.18
773.405	6.66
773.592	6.66
773.78	61.95
773.967	-95.74
774.154	115.2
774.342	18.94
774.529	-42.5
774.717	20.99
774.904	49.66
775.091	80.38
775.279	12.8
775.466	-40.45
775.653	-62.98
775.841	25.09
776.028	-7.68
776.215	16.9
776.402	-11.78
776.59	-9.73
776.777	18.94
776.964	31.23
777.151	31.23
777.338	-108.03
777.526	-83.45
777.713	-11.78
777.9	35.33
778.087	-34.3
778.274	33.28
778.461	35.33
778.649	-54.78
778.836	53.76
779.023	-79.36
779.21	-56.83
779.397	-89.6
779.584	-3.58
779.771	-26.11
779.958	23.04
780.145	-19.97
780.332	-36.35
780.519	-48.64
780.706	-73.21
780.893	-17.92
781.08	111.1
781.267	94.72
781.454	-30.21
781.641	4.61
781.828	-22.02
782.015	-3.58
782.202	-44.54
782.388	-58.88
782.575	-79.36
782.762	8.7
782.949	-40.45
783.136	43.52
783.323	59.9
783.509	49.66
783.696	47.62
783.883	18.94
784.07	-1.54
784.257	-17.92
784.443	57.86
784.63	-91.65
784.817	-50.69
785.004	-75.26
785.19	23.04
785.377	-81.41
785.564	-13.82
785.75	43.52
785.937	-32.26
786.124	37.38
786.31	-58.88
786.497	-108.03
786.683	-81.41
786.87	-30.21
787.057	94.72
787.243	-77.31
787.43	14.85
787.616	2.56
787.803	51.71
787.989	-7.68
788.176	78.33
788.362	68.09
788.549	-46.59
788.735	-15.87
788.922	-58.88
789.108	45.57
789.295	-30.21
789.481	-67.07
789.668	4.61
789.854	-26.11
790.04	-38.4
790.227	-36.35
790.413	10.75
790.599	-3.58
790.786	-75.26
790.972	-11.78
791.158	8.7
791.345	12.8
791.531	-22.02
791.717	-81.41
791.904	-15.87
792.09	4.61
792.276	23.04
792.462	-3.58
792.649	107.01
792.835	-44.54
793.021	16.9
793.207	80.38
793.393	-44.54
793.58	86.53
793.766	-54.78
793.952	61.95
794.138	-91.65
794.324	6.66
794.51	-28.16
794.696	-32.26
794.882	-30.21
795.069	104.96
795.255	84.48
795.441	-58.88
795.627	29.18
795.813	45.57
795.999	-97.79
796.185	-22.02
796.371	16.9
796.557	-69.12
796.743	20.99
796.929	-24.06
797.115	-97.79
797.3	-108.03
797.486	27.14
797.672	-3.58
797.858	-122.37
798.044	29.18
798.23	-19.97
798.416	37.38
798.602	-11.78
798.788	-5.63
798.973	72.19
799.159	23.04
799.345	57.86
799.531	-15.87
799.717	29.18
799.902	20.99
800.088	-56.83
800.274	-40.45
800.46	12.8
800.645	-34.3
800.831	-13.82
801.017	10.75
801.202	-19.97
801.388	37.38
801.574	-26.11
801.759	76.29
801.945	-5.63
802.131	2.56
802.316	127.49
802.502	-7.68
802.687	-81.41
802.873	10.75
803.058	86.53
803.244	-36.35
803.43	-42.5
803.615	12.8
803.801	18.94
803.986	-40.45
804.172	-28.16
804.357	25.09
804.543	-26.11
804.728	20.99
804.913	10.75
805.099	-81.41
805.284	8.7
805.47	-75.26
805.655	102.91
805.84	-95.74
806.026	37.38
806.211	14.85
806.397	53.76
806.582	-44.54
806.767	-36.35
806.953	-44.54
807.138	14.85
807.323	-15.87
807.508	-85.5
807.694	20.99
807.879	-24.06
808.064	-56.83
808.249	29.18
808.435	12.8
808.62	41.47
808.805	-56.83
808.99	-36.35
809.175	74.24
809.361	43.52
809.546	23.04
809.731	-13.82
809.916	-79.36
810.101	0.51
810.286	-44.54
810.471	18.94
810.656	-60.93
810.841	31.23
811.026	10.75
811.211	55.81
811.396	53.76
811.581	-34.3
811.766	55.81
811.951	-22.02
812.136	-15.87
812.321	-7.68
812.506	49.66
812.691	-101.89
812.876	2.56
813.061	31.23
813.246	51.71
813.431	-91.65
813.616	84.48
813.801	0.51
813.986	-9.73
814.17	-40.45
814.355	-46.59
814.54	-17.92
814.725	43.52
814.91	-11.78
815.094	41.47
815.279	125.44
815.464	-54.78
815.649	-44.54
815.833	20.99
816.018	-3.58
816.203	-54.78
816.388	18.94
816.572	-36.35
816.757	-134.65
816.942	-101.89
817.126	78.33
817.311	-118.27
817.496	4.61
817.68	-89.6
817.865	111.1
818.049	-87.55
818.234	20.99
818.419	84.48
818.603	-32.26
818.788	47.62
818.972	-30.21
819.157	-26.11
819.341	-34.3
819.526	-42.5
819.71	-48.64
819.895	-67.07
820.079	70.14
820.264	-26.11
820.448	-22.02
820.633	-42.5
820.817	-15.87
821.001	-9.73
821.186	-48.64
821.37	-60.93
821.554	2.56
821.739	-71.17
821.923	-11.78
822.108	31.23
822.292	-44.54
822.476	23.04
822.66	-34.3
822.845	-28.16
823.029	-30.21
823.213	-19.97
823.398	47.62
823.582	-3.58
823.766	-19.97
823.95	-38.4
824.134	-36.35
824.319	-7.68
824.503	-120.32
824.687	27.14
824.871	-56.83
825.055	43.52
825.239	-40.45
825.423	-9.73
825.608	-36.35
825.792	35.33
825.976	109.05
826.16	-40.45
826.344	-19.97
826.528	45.57
826.712	-5.63
826.896	-75.26
827.08	27.14
827.264	-134.65
827.448	45.57
827.632	-81.41
827.816	-71.17
828	-71.17
828.184	-54.78
828.368	-11.78
828.552	72.19
828.736	59.9
828.919	-17.92
829.103	-69.12
829.287	16.9
829.471	-155.13
829.655	-46.59
829.839	-34.3
830.023	107.01
830.206	-58.88
830.39	-9.73
830.574	-34.3
830.758	-65.02
830.941	-30.21
831.125	-83.45
831.309	-50.69
831.493	-99.84
831.676	-13.82
831.86	-5.63
832.044	-99.84
832.227	16.9
832.411	20.99
832.595	-77.31
832.778	-15.87
832.962	4.61
833.146	-3.58
833.329	12.8
833.513	10.75
833.696	25.09
833.88	-3.58
834.064	-71.17
834.247	-42.5
834.431	-19.97
834.614	-7.68
834.798	-19.97
834.981	-48.64
835.165	-75.26
835.348	-48.64
835.532	29.18
835.715	29.18
835.898	-24.06
836.082	-75.26
836.265	-69.12
836.449	18.94
836.632	-17.92
836.815	80.38
836.999	59.9
837.182	90.62
837.365	33.28
837.549	121.34
837.732	37.38
837.915	2.56
838.099	0.51
838.282	8.7
838.465	-19.97
838.648	-5.63
838.832	-120.32
839.015	47.62
839.198	33.28
839.381	-105.98
839.565	-19.97
839.748	86.53
839.931	-65.02
840.114	0.51
840.297	-81.41
840.48	33.28
840.663	25.09
840.847	20.99
841.03	-15.87
841.213	35.33
841.396	-17.92
841.579	-40.45
841.762	55.81
841.945	10.75
842.128	-38.4
842.311	-69.12
842.494	-44.54
842.677	35.33
842.86	-36.35
843.043	-42.5
843.226	70.14
843.409	72.19
843.592	16.9
843.775	-24.06
843.958	-26.11
844.141	27.14
844.323	37.38
844.506	4.61
844.689	-65.02
844.872	-54.78
845.055	-28.16
845.238	-77.31
845.42	-77.31
845.603	45.57
845.786	-32.26
845.969	12.8
846.152	-99.84
846.334	-26.11
846.517	39.42
846.7	-42.5
846.883	-5.63
847.065	-5.63
847.248	-7.68
847.431	-81.41
847.613	-116.22
847.796	78.33
847.979	23.04
848.161	76.29
848.344	-17.92
848.526	31.23
848.709	12.8
848.892	-7.68
849.074	-112.13
849.257	-58.88
849.439	-5.63
849.622	-101.89
849.804	51.71
849.987	-75.26
850.169	18.94
850.352	29.18
850.534	-17.92
850.717	-5.63
850.899	43.52
851.082	-1.54
851.264	-22.02
851.446	33.28
851.629	31.23
851.811	27.14
851.994	-5.63
852.176	29.18
852.358	6.66
852.541	-30.21
852.723	4.61
852.905	29.18
853.088	37.38
853.27	0.51
853.452	-46.59
853.635	12.8
853.817	-7.68
853.999	4.61
854.181	-19.97
854.363	16.9
854.546	-26.11
854.728	-73.21
854.91	-32.26
855.092	-44.54
855.274	47.62
855.457	-38.4
855.639	49.66
855.821	-71.17
856.003	25.09
856.185	29.18
856.367	139.77
856.549	-34.3
856.731	-75.26
856.913	-3.58
857.095	39.42
857.277	18.94
857.459	-13.82
857.641	-56.83
857.823	-105.98
858.005	-26.11
858.187	-50.69
858.369	68.09
858.551	-36.35
858.733	-52.74
858.915	-5.63
859.097	90.62
859.279	14.85
859.461	-26.11
859.643	6.66
859.824	8.7
860.006	-60.93
860.188	-1.54
860.37	-69.12
860.552	-52.74
860.734	-30.21
860.915	-50.69
861.097	-71.17
861.279	53.76
861.461	47.62
861.642	2.56
861.824	115.2
862.006	49.66
862.188	41.47
862.369	2.56
862.551	-3.58
862.733	96.77
862.914	6.66
863.096	-56.83
863.278	59.9
863.459	-42.5
863.641	68.09
863.822	-65.02
864.004	-9.73
864.185	-22.02
864.367	8.7
864.549	27.14
864.73	59.9
864.912	-69.12
865.093	2.56
865.275	4.61
865.456	27.14
865.638	-36.35
865.819	96.77
866.001	12.8
866.182	-3.58
866.363	-71.17
866.545	33.28
866.726	20.99
866.908	35.33
867.089	41.47
867.27	64
867.452	-13.82
867.633	168.45
867.814	72.19
867.996	45.57
868.177	33.28
868.358	20.99
868.54	-38.4
868.721	0.51
868.902	-67.07
869.083	-11.78
869.265	20.99
869.446	-30.21
869.627	31.23
869.808	-3.58
869.989	43.52
870.171	-24.06
870.352	-15.87
870.533	-42.5
870.714	-108.03
870.895	-48.64
871.076	-7.68
871.257	27.14
871.438	-15.87
871.619	-103.93
871.801	14.85
871.982	10.75
872.163	-38.4
872.344	-19.97
872.525	18.94
872.706	-1.54
872.887	-95.74
873.068	-26.11
873.249	51.71
873.43	-103.93
873.61	90.62
873.791	-7.68
873.972	66.05
874.153	29.18
874.334	-5.63
874.515	-26.11
874.696	45.57
874.877	-40.45
875.058	-73.21
875.238	-38.4
875.419	37.38
875.6	-7.68
875.781	-22.02
875.962	-99.84
876.142	18.94
876.323	8.7
876.504	-161.28
876.685	10.75
876.865	-79.36
877.046	-81.41
877.227	49.66
877.407	0.51
877.588	-62.98
877.769	2.56
877.949	117.25
878.13	-17.92
878.311	-11.78
878.491	-50.69
878.672	20.99
878.853	49.66
879.033	68.09
879.214	-34.3
879.394	12.8
879.575	-67.07
879.755	-122.37
879.936	39.42
880.116	-81.41
880.297	29.18
880.477	51.71
880.658	-5.63
880.838	-9.73
881.019	-17.92
881.199	111.1
881.38	-30.21
881.56	10.75
881.74	-34.3
881.921	104.96
882.101	-3.58
882.281	-24.06
882.462	-36.35
882.642	-15.87
882.822	-9.73
883.003	-5.63
883.183	-1.54
883.363	-46.59
883.544	-97.79
883.724	-62.98
883.904	51.71
884.084	-89.6
884.265	-22.02
884.445	-9.73
884.625	57.86
884.805	-26.11
884.985	-44.54
885.166	-108.03
885.346	-42.5
885.526	20.99
885.706	-26.11
885.886	-83.45
886.066	23.04
886.246	-13.82
886.426	-44.54
886.606	47.62
886.787	82.43
886.967	-17.92
887.147	55.81
887.327	-69.12
887.507	-26.11
887.687	-24.06
887.867	-9.73
888.047	-128.51
888.227	35.33
888.406	14.85
888.586	12.8
888.766	-79.36
888.946	-11.78
889.126	80.38
889.306	20.99
889.486	33.28
889.666	45.57
889.846	-9.73
890.025	16.9
890.205	-60.93
890.385	-34.3
890.565	4.61
890.745	-140.8
890.924	-9.73
891.104	-15.87
891.284	18.94
891.464	2.56
891.643	-38.4
891.823	6.66
892.003	-50.69
892.183	-75.26
892.362	25.09
892.542	25.09
892.722	45.57
892.901	25.09
893.081	12.8
893.26	-77.31
893.44	86.53
893.62	37.38
893.799	-9.73
893.979	-15.87
894.158	-28.16
894.338	-110.08
894.517	51.71
894.697	-46.59
894.877	35.33
895.056	0.51
895.236	20.99
895.415	53.76
895.594	-7.68
895.774	-48.64
895.953	18.94
896.133	-114.17
896.312	23.04
896.492	-9.73
896.671	53.76
896.85	-67.07
897.03	55.81
897.209	43.52
897.388	12.8
897.568	4.61
897.747	-62.98
897.926	-32.26
898.106	-108.03
898.285	25.09
898.464	37.38
898.643	-50.69
898.823	-15.87
899.002	14.85
899.181	-5.63
899.36	33.28
899.54	-71.17
899.719	68.09
899.898	-24.06
900.077	39.42
900.256	-1.54
900.435	6.66
900.614	-71.17
900.794	18.94
900.973	-44.54
901.152	10.75
901.331	37.38
901.51	-38.4
901.689	-44.54
901.868	109.05
902.047	84.48
902.226	-65.02
902.405	-7.68
902.584	-15.87
902.763	-34.3
902.942	8.7
903.121	-15.87
903.3	-28.16
903.479	-3.58
903.658	-28.16
903.837	47.62
904.015	-5.63
904.194	90.62
904.373	43.52
904.552	18.94
904.731	-17.92
904.91	-24.06
905.089	137.73
905.267	12.8
905.446	35.33
905.625	43.52
905.804	-3.58
905.982	-11.78
906.161	84.48
906.34	-71.17
906.519	-22.02
906.697	-79.36
906.876	-87.55
907.055	29.18
907.233	14.85
907.412	61.95
907.591	-9.73
907.769	20.99
907.948	-44.54
908.127	-58.88
908.305	47.62
908.484	-93.69
908.662	-36.35
908.841	90.62
909.019	-7.68
909.198	-13.82
909.377	16.9
909.555	-93.69
909.734	98.81
909.912	8.7
910.09	-56.83
910.269	6.66
910.447	31.23
910.626	25.09
910.804	57.86
910.983	-22.02
911.161	104.96
911.339	25.09
911.518	96.77
911.696	33.28
911.875	-105.98
912.053	47.62
912.231	88.57
912.41	-5.63
912.588	14.85
912.766	-5.63
912.944	-3.58
913.123	-62.98
913.301	39.42
913.479	41.47
913.657	-69.12
913.836	-32.26
914.014	-108.03
914.192	-28.16
914.37	-69.12
914.548	12.8
914.727	31.23
914.905	-3.58
915.083	90.62
915.261	-101.89
915.439	80.38
915.617	-60.93
915.795	53.76
915.973	76.29
916.151	16.9
916.329	76.29
916.508	-36.35
916.686	84.48
916.864	-34.3
917.042	2.56
917.22	4.61
917.398	35.33
917.575	31.23
917.753	-15.87
917.931	72.19
918.109	-62.98
918.287	-83.45
918.465	16.9
918.643	129.53
918.821	6.66
918.999	76.29
919.177	59.9
919.354	-52.74
919.532	57.86
919.71	-22.02
919.888	-91.65
920.066	16.9
920.243	51.71
920.421	25.09
920.599	-60.93
920.777	16.9
920.954	18.94
921.132	-17.92
921.31	-19.97
921.488	51.71
921.665	129.53
921.843	29.18
922.021	-11.78
922.198	-62.98
922.376	64
922.553	84.48
922.731	-32.26
922.909	-40.45
923.086	-24.06
923.264	-28.16
923.441	33.28
923.619	53.76
923.796	-79.36
923.974	55.81
924.152	61.95
924.329	68.09
924.507	-58.88
924.684	-17.92
924.861	-38.4
925.039	27.14
925.216	18.94
925.394	39.42
925.571	-73.21
925.749	-71.17
925.926	31.23
926.103	53.76
926.281	-67.07
926.458	-28.16
926.635	-5.63
926.813	-30.21
926.99	-46.59
927.167	8.7
927.345	-24.06
927.522	-3.58
927.699	-56.83
927.876	-69.12
928.054	-13.82
928.231	-22.02
928.408	66.05
928.585	74.24
928.763	16.9
928.94	18.94
929.117	-17.92
929.294	35.33
929.471	-93.69
929.648	-79.36
929.825	49.66
930.003	37.38
930.18	31.23
930.357	31.23
930.534	-9.73
930.711	25.09
930.888	35.33
931.065	-26.11
931.242	-62.98
931.419	-95.74
931.596	61.95
931.773	-79.36
931.95	4.61
932.127	-28.16
932.304	25.09
932.481	-50.69
932.658	-60.93
932.835	10.75
933.011	-58.88
933.188	-7.68
933.365	-34.3
933.542	-38.4
933.719	-24.06
933.896	-26.11
934.073	-34.3
934.249	-34.3
934.426	10.75
934.603	-38.4
934.78	-112.13
934.957	-9.73
935.133	51.71
935.31	-60.93
935.487	123.39
935.664	-132.61
935.84	-13.82
936.017	-15.87
936.194	98.81
936.37	-52.74
936.547	-105.98
936.724	-34.3
936.9	-9.73
937.077	25.09
937.253	-46.59
937.43	-24.06
937.607	53.76
937.783	-65.02
937.96	123.39
938.136	-42.5
938.313	6.66
938.489	0.51
938.666	-116.22
938.842	55.81
939.019	-60.93
939.195	-7.68
939.372	-30.21
939.548	-87.55
939.725	-36.35
939.901	-118.27
940.077	47.62
940.254	-24.06
940.43	61.95
940.607	45.57
940.783	18.94
940.959	2.56
941.136	-40.45
941.312	-1.54
941.488	-116.22
941.665	96.77
941.841	-83.45
942.017	-24.06
942.193	31.23
942.37	2.56
942.546	104.96
942.722	57.86
942.898	64
943.074	0.51
943.251	16.9
943.427	-9.73
943.603	-77.31
943.779	-116.22
943.955	88.57
944.131	33.28
944.308	-11.78
944.484	-5.63
944.66	59.9
944.836	10.75
945.012	-56.83
945.188	-36.35
945.364	-30.21
945.54	-79.36
945.716	-40.45
945.892	-46.59
946.068	-40.45
946.244	-130.56
946.42	-73.21
946.596	43.52
946.772	-11.78
946.948	-26.11
947.124	23.04
947.3	-65.02
947.475	70.14
947.651	55.81
947.827	35.33
948.003	104.96
948.179	-95.74
948.355	-50.69
948.531	-26.11
948.706	90.62
948.882	-11.78
949.058	-73.21
949.234	55.81
949.409	-38.4
949.585	20.99
949.761	29.18
949.937	61.95
950.112	-19.97
950.288	37.38
950.464	-36.35
950.639	-19.97
950.815	-22.02
950.991	-15.87
951.166	0.51
951.342	-11.78
951.518	-58.88
951.693	-26.11
951.869	-22.02
952.044	6.66
952.22	43.52
952.395	10.75
952.571	-56.83
952.747	-83.45
952.922	-69.12
953.098	12.8
953.273	-81.41
953.448	-54.78
953.624	-56.83
953.799	23.04
953.975	23.04
954.15	-11.78
954.326	68.09
954.501	92.67
954.676	8.7
954.852	-5.63
955.027	25.09
955.203	66.05
955.378	-28.16
955.553	-60.93
955.729	-116.22
955.904	64
956.079	2.56
956.254	66.05
956.43	-69.12
956.605	10.75
956.78	66.05
956.955	-85.5
957.131	-15.87
957.306	4.61
957.481	-116.22
957.656	-24.06
957.831	-5.63
958.007	16.9
958.182	-9.73
958.357	0.51
958.532	53.76
958.707	-38.4
958.882	31.23
959.057	31.23
959.232	-1.54
959.407	74.24
959.582	55.81
959.757	-34.3
959.932	-19.97
960.107	18.94
960.282	-22.02
960.457	-32.26
960.632	-85.5
960.807	6.66
960.982	-11.78
961.157	41.47
961.332	-15.87
961.507	-54.78
961.682	-56.83
961.857	-67.07
962.032	74.24
962.206	-71.17
962.381	41.47
962.556	-28.16
962.731	70.14
962.906	-38.4
963.081	49.66
963.255	51.71
963.43	29.18
963.605	6.66
963.78	-22.02
963.954	102.91
964.129	100.86
964.304	90.62
964.479	14.85
964.653	-144.89
964.828	-5.63
965.003	-5.63
965.177	20.99
965.352	-5.63
965.526	-44.54
965.701	18.94
965.876	35.33
966.05	-22.02
966.225	82.43
966.399	47.62
966.574	47.62
966.748	51.71
966.923	-13.82
967.098	-56.83
967.272	51.71
967.446	121.34
967.621	29.18
967.795	-42.5
967.97	14.85
968.144	2.56
968.319	2.56
968.493	-44.54
968.668	23.04
968.842	20.99
969.016	6.66
969.191	61.95
969.365	27.14
969.539	41.47
969.714	-22.02
969.888	51.71
970.062	-38.4
970.237	-83.45
970.411	18.94
970.585	-19.97
970.759	-1.54
970.934	-7.68
971.108	-118.27
971.282	-3.58
971.456	-22.02
971.63	4.61
971.805	39.42
971.979	20.99
972.153	-60.93
972.327	-36.35
972.501	-30.21
972.675	-30.21
972.849	-13.82
973.024	37.38
973.198	-36.35
973.372	43.52
973.546	-36.35
973.72	-128.51
973.894	45.57
974.068	20.99
974.242	-1.54
974.416	-69.12
974.59	-22.02
974.764	-44.54
974.938	53.76
975.112	64
975.286	-146.94
975.46	39.42
975.633	-58.88
975.807	-30.21
975.981	0.51
976.155	78.33
976.329	-26.11
976.503	-1.54
976.677	-17.92
976.85	37.38
977.024	20.99
977.198	18.94
977.372	-42.5
977.546	-5.63
977.719	-79.36
977.893	47.62
978.067	-83.45
978.241	33.28
978.414	-24.06
978.588	33.28
978.762	-11.78
978.935	68.09
979.109	-17.92
979.283	-1.54
979.456	-7.68
979.63	-34.3
979.804	-42.5
979.977	53.76
980.151	33.28
980.324	61.95
980.498	59.9
980.671	41.47
980.845	-5.63
981.018	-5.63
981.192	-58.88
981.365	37.38
981.539	18.94
981.712	39.42
981.886	-34.3
982.059	2.56
982.233	37.38
982.406	-38.4
982.58	27.14
982.753	-50.69
982.926	53.76
983.1	18.94
983.273	86.53
983.446	-54.78
983.62	-19.97
983.793	-17.92
983.966	-112.13
984.14	102.91
984.313	-24.06
984.486	94.72
984.66	-83.45
984.833	90.62
985.006	-62.98
985.179	20.99
985.352	-3.58
985.526	-83.45
985.699	-83.45
985.872	-71.17
986.045	16.9
986.218	94.72
986.391	25.09
986.565	80.38
986.738	-3.58
986.911	-28.16
987.084	-13.82
987.257	16.9
987.43	29.18
987.603	-22.02
987.776	-34.3
987.949	-48.64
988.122	80.38
988.295	-58.88
988.468	33.28
988.641	-65.02
988.814	-22.02
988.987	12.8
989.16	10.75
989.333	-81.41
989.506	-101.89
989.679	-28.16
989.852	-24.06
990.025	-48.64
990.197	47.62
990.37	-7.68
990.543	2.56
990.716	-81.41
990.889	-91.65
991.062	-26.11
991.234	59.9
991.407	-19.97
991.58	29.18
991.753	-79.36
991.925	-93.69
992.098	27.14
992.271	0.51
992.444	8.7
992.616	41.47
992.789	-5.63
992.962	16.9
993.134	20.99
993.307	-32.26
993.479	-11.78
993.652	37.38
993.825	-42.5
993.997	10.75
994.17	-7.68
994.342	109.05
994.515	0.51
994.688	-38.4
994.86	33.28
995.033	-13.82
995.205	-71.17
995.378	27.14
995.55	-13.82
995.723	-15.87
995.895	-40.45
996.067	12.8
996.24	-48.64
996.412	8.7
996.585	-46.59
996.757	-54.78
996.929	8.7
997.102	-81.41
997.274	29.18
997.447	-105.98
997.619	74.24
997.791	-26.11
997.964	-5.63
998.136	4.61
998.308	-15.87
998.48	-26.11
998.653	113.15
998.825	-85.5
998.997	-101.89
999.169	78.33
999.342	-1.54
999.514	55.81
999.686	-17.92
999.858	-40.45
1000.03	4.61
1000.202	-38.4
1000.374	-32.26
1000.547	-163.33
1000.719	0.51
1000.891	-132.61
1001.063	84.48
1001.235	37.38
1001.407	-13.82
1001.579	-62.98
1001.751	-60.93
1001.923	-1.54
1002.095	2.56
1002.267	-34.3
1002.439	2.56
1002.611	-9.73
1002.783	16.9
1002.955	-69.12
1003.127	14.85
1003.299	-15.87
1003.471	18.94
1003.643	-28.16
1003.815	10.75
1003.986	43.52
1004.158	57.86
1004.33	8.7
1004.502	51.71
1004.674	-22.02
1004.846	0.51
1005.017	-17.92
1005.189	35.33
1005.361	18.94
1005.533	-13.82
1005.704	-7.68
1005.876	-3.58
1006.048	-40.45
1006.22	51.71
1006.391	-58.88
1006.563	29.18
1006.735	27.14
1006.906	-5.63
1007.078	66.05
1007.25	-58.88
1007.421	-15.87
1007.593	-24.06
1007.764	-97.79
1007.936	68.09
1008.108	-99.84
1008.279	-44.54
1008.451	-1.54
1008.622	2.56
1008.794	-13.82
1008.965	4.61
1009.137	70.14
1009.308	-22.02
1009.48	-58.88
1009.651	51.71
1009.823	29.18
1009.994	10.75
1010.165	10.75
1010.337	-30.21
1010.508	12.8
1010.68	-85.5
1010.851	-15.87
1011.022	119.29
1011.194	-17.92
1011.365	-60.93
1011.536	14.85
1011.708	-36.35
1011.879	-105.98
1012.05	39.42
1012.222	25.09
1012.393	4.61
1012.564	25.09
1012.735	47.62
1012.906	-28.16
1013.078	-30.21
1013.249	64
1013.42	0.51
1013.591	49.66
1013.762	-1.54
1013.934	-34.3
1014.105	-71.17
1014.276	-3.58
1014.447	18.94
1014.618	14.85
1014.789	-38.4
1014.96	-87.55
1015.131	-42.5
1015.302	-34.3
1015.473	-24.06
1015.644	-56.83
1015.815	35.33
1015.986	64
1016.157	6.66
1016.328	113.15
1016.499	137.73
1016.67	37.38
1016.841	14.85
1017.012	94.72
1017.183	-46.59
1017.354	20.99
1017.525	-30.21
1017.696	96.77
1017.867	-9.73
1018.037	29.18
1018.208	70.14
1018.379	10.75
1018.55	-7.68
1018.721	-116.22
1018.891	-24.06
1019.062	10.75
1019.233	33.28
1019.404	25.09
1019.574	-101.89
1019.745	10.75
1019.916	-62.98
1020.087	-95.74
1020.257	43.52
1020.428	-54.78
1020.599	92.67
1020.769	107.01
1020.94	31.23
1021.11	-9.73
1021.281	-65.02
1021.452	-28.16
1021.622	47.62
1021.793	66.05
1021.963	-24.06
1022.134	-30.21
1022.305	31.23
1022.475	18.94
1022.646	-75.26
1022.816	115.2
1022.987	4.61
1023.157	-22.02
1023.327	107.01
1023.498	-54.78
1023.668	107.01
1023.839	125.44
1024.009	12.8
1024.18	-15.87
1024.35	-26.11
1024.52	78.33
1024.691	68.09
1024.861	25.09
1025.031	-46.59
1025.202	6.66
1025.372	-48.64
1025.542	-32.26
1025.713	-3.58
1025.883	-48.64
1026.053	-13.82
1026.223	-71.17
1026.394	-9.73
1026.564	-52.74
1026.734	84.48
1026.904	66.05
1027.074	-26.11
1027.245	29.18
1027.415	70.14
1027.585	-3.58
1027.755	6.66
1027.925	-17.92
1028.095	29.18
1028.265	4.61
1028.435	-28.16
1028.606	16.9
1028.776	-36.35
1028.946	-89.6
1029.116	-56.83
1029.286	-114.17
1029.456	55.81
1029.626	-30.21
1029.796	-3.58
1029.966	-3.58
1030.136	31.23
1030.306	-58.88
1030.475	68.09
1030.645	53.76
1030.815	-30.21
1030.985	-71.17
1031.155	55.81
1031.325	53.76
1031.495	-11.78
1031.665	14.85
1031.835	80.38
1032.004	10.75
1032.174	-75.26
1032.344	-38.4
1032.514	-17.92
1032.684	-24.06
1032.853	96.77
1033.023	-85.5
1033.193	-30.21
1033.362	-17.92
1033.532	-56.83
1033.702	18.94
1033.872	49.66
1034.041	39.42
1034.211	-15.87
1034.381	10.75
1034.55	39.42
1034.72	115.2
1034.889	-60.93
1035.059	39.42
1035.229	-148.99
1035.398	-22.02
1035.568	14.85
1035.737	-17.92
1035.907	2.56
1036.076	-9.73
1036.246	-58.88
1036.415	104.96
1036.585	-19.97
1036.754	-101.89
1036.924	-15.87
1037.093	61.95
1037.263	-36.35
1037.432	-22.02
1037.601	41.47
1037.771	-69.12
1037.94	-24.06
1038.11	-32.26
1038.279	18.94
1038.448	-13.82
1038.618	-11.78
1038.787	-17.92
1038.956	8.7
1039.126	20.99
1039.295	-5.63
1039.464	-48.64
1039.633	-13.82
1039.803	25.09
1039.972	39.42
1040.141	-48.64
1040.31	39.42
1040.479	14.85
1040.649	70.14
1040.818	-34.3
1040.987	64
1041.156	-15.87
1041.325	35.33
1041.494	-40.45
1041.663	35.33
1041.833	-62.98
1042.002	-11.78
1042.171	41.47
1042.34	-28.16
1042.509	12.8
1042.678	-146.94
