Data from Halogen_Dark_USB4A006151_15-36-34-827.txt Node
Date: Thu Aug 17 15:36:34 EDT 2023
User: Emmanuel
Spectrometer: USB4A00615
Scans to average: 1
Trigger mode: 4
Integration Time (sec): 2.900000E-2
Electric dark correction enabled: true
Boxcar width: 0
XAxis mode: Wavelengths
Number of Pixels in Spectrum: 3648
>>>>>Begin Spectral Data<<<<<
346.606	33266.01
346.818	33266.01
347.029	33266.01
347.241	-93.35
347.452	-19.63
347.664	19.29
347.876	-42.15
348.087	-21.67
348.299	0.85
348.51	-5.29
348.722	70.48
348.933	35.67
349.145	-17.58
349.356	-62.63
349.568	-1.19
349.779	15.19
349.991	9.05
350.202	17.24
350.414	-9.39
350.625	-1.19
350.836	-29.87
351.048	-58.54
351.259	-42.15
351.471	-19.63
351.682	-42.15
351.893	78.68
352.105	-33.96
352.316	-23.72
352.527	-3.24
352.739	58.2
352.95	-13.48
353.161	-3.24
353.372	-48.3
353.584	-40.11
353.795	17.24
354.006	39.76
354.217	31.57
354.429	-19.63
354.64	27.48
354.851	21.33
355.062	-11.43
355.274	-38.06
355.485	29.52
355.696	31.57
355.907	15.19
356.118	33.62
356.329	-68.78
356.54	-33.96
356.752	25.43
356.963	39.76
357.174	4.95
357.385	66.39
357.596	-11.43
357.807	54.1
358.018	21.33
358.229	-87.21
358.44	50
358.651	-54.44
358.862	7
359.073	-48.3
359.284	-17.58
359.495	-11.43
359.706	-124.07
359.917	88.92
360.128	4.95
360.339	58.2
360.55	4.95
360.761	-50.35
360.972	74.58
361.182	-54.44
361.393	-40.11
361.604	-66.73
361.815	60.24
362.026	-70.83
362.237	-17.58
362.447	4.95
362.658	-3.24
362.869	29.52
363.08	39.76
363.291	64.34
363.501	21.33
363.712	39.76
363.923	54.1
364.134	2.9
364.344	-1.19
364.555	-11.43
364.766	17.24
364.976	-7.34
365.187	-1.19
365.398	-11.43
365.608	-36.01
365.819	-54.44
366.03	-74.92
366.24	-23.72
366.451	232.27
366.662	-7.34
366.872	-11.43
367.083	27.48
367.293	66.39
367.504	-3.24
367.714	0.85
367.925	4.95
368.135	-25.77
368.346	-50.35
368.557	97.11
368.767	-1.19
368.977	-3.24
369.188	-25.77
369.398	-19.63
369.609	27.48
369.819	2.9
370.03	13.14
370.24	27.48
370.451	27.48
370.661	-40.11
370.871	-21.67
371.082	21.33
371.292	56.15
371.502	33.62
371.713	-64.68
371.923	41.81
372.133	-36.01
372.344	78.68
372.554	-36.01
372.764	-42.15
372.975	-36.01
373.185	-13.48
373.395	-23.72
373.605	-23.72
373.816	66.39
374.026	29.52
374.236	50
374.446	-31.91
374.656	33.62
374.867	21.33
375.077	23.38
375.287	2.9
375.497	54.1
375.707	0.85
375.917	-70.83
376.127	66.39
376.338	2.9
376.548	39.76
376.758	43.86
376.968	13.14
377.178	37.72
377.388	33.62
377.598	-5.29
377.808	-87.21
378.018	-60.59
378.228	52.05
378.438	15.19
378.648	-3.24
378.858	-1.19
379.068	0.85
379.278	-31.91
379.488	-3.24
379.698	0.85
379.908	13.14
380.118	9.05
380.327	31.57
380.537	9.05
380.747	-27.82
380.957	62.29
381.167	15.19
381.377	13.14
381.587	-15.53
381.796	72.53
382.006	37.72
382.216	29.52
382.426	2.9
382.636	-17.58
382.845	-3.24
383.055	-87.21
383.265	-15.53
383.475	72.53
383.684	-72.87
383.894	-15.53
384.104	-36.01
384.313	-40.11
384.523	-15.53
384.733	-23.72
384.942	58.2
385.152	-50.35
385.362	13.14
385.571	-1.19
385.781	-68.78
385.991	19.29
386.2	56.15
386.41	23.38
386.619	13.14
386.829	13.14
387.038	35.67
387.248	13.14
387.457	27.48
387.667	25.43
387.876	-5.29
388.086	35.67
388.295	-23.72
388.505	-21.67
388.714	54.1
388.924	15.19
389.133	-25.77
389.343	41.81
389.552	52.05
389.762	31.57
389.971	-27.82
390.18	25.43
390.39	-74.92
390.599	70.48
390.808	93.01
391.018	-89.26
391.227	47.96
391.436	41.81
391.646	-60.59
391.855	27.48
392.064	0.85
392.274	-40.11
392.483	37.72
392.692	-58.54
392.901	-23.72
393.111	60.24
393.32	-27.82
393.529	-21.67
393.738	45.91
393.947	-1.19
394.157	11.09
394.366	21.33
394.575	93.01
394.784	-3.24
394.993	-13.48
395.202	-1.19
395.411	-7.34
395.62	13.14
395.83	-72.87
396.039	-11.43
396.248	-11.43
396.457	39.76
396.666	33.62
396.875	-48.3
397.084	-58.54
397.293	-3.24
397.502	35.67
397.711	25.43
397.92	21.33
398.129	-48.3
398.338	9.05
398.547	-11.43
398.756	11.09
398.965	-29.87
399.174	15.19
399.382	-99.5
399.591	-21.67
399.8	64.34
400.009	-33.96
400.218	-70.83
400.427	66.39
400.636	-1.19
400.844	50
401.053	58.2
401.262	33.62
401.471	33.62
401.68	-11.43
401.888	-76.97
402.097	19.29
402.306	-11.43
402.515	-58.54
402.723	33.62
402.932	4.95
403.141	11.09
403.35	39.76
403.558	9.05
403.767	4.95
403.976	17.24
404.184	37.72
404.393	-29.87
404.602	-66.73
404.81	74.58
405.019	21.33
405.227	64.34
405.436	-13.48
405.645	-5.29
405.853	41.81
406.062	-36.01
406.27	-19.63
406.479	-1.19
406.687	60.24
406.896	0.85
407.104	-27.82
407.313	-9.39
407.521	21.33
407.73	-13.48
407.938	-3.24
408.147	-1.19
408.355	60.24
408.563	31.57
408.772	-40.11
408.98	9.05
409.189	-31.91
409.397	39.76
409.605	-21.67
409.814	-1.19
410.022	35.67
410.23	50
410.439	70.48
410.647	-54.44
410.855	-13.48
411.064	13.14
411.272	-44.2
411.48	68.44
411.688	-7.34
411.897	84.82
412.105	-64.68
412.313	-13.48
412.521	62.29
412.73	-64.68
412.938	-3.24
413.146	-19.63
413.354	21.33
413.562	54.1
413.77	31.57
413.979	-38.06
414.187	35.67
414.395	-58.54
414.603	33.62
414.811	17.24
415.019	-38.06
415.227	4.95
415.435	-21.67
415.643	-23.72
415.851	62.29
416.059	41.81
416.267	-29.87
416.475	23.38
416.683	35.67
416.891	-93.35
417.099	-3.24
417.307	47.96
417.515	-60.59
417.723	-27.82
417.931	-62.63
418.139	4.95
418.347	-36.01
418.555	-13.48
418.763	9.05
418.971	21.33
419.179	13.14
419.386	-9.39
419.594	4.95
419.802	-3.24
420.01	13.14
420.218	25.43
420.426	37.72
420.633	-23.72
420.841	-11.43
421.049	13.14
421.257	4.95
421.464	9.05
421.672	60.24
421.88	-66.73
422.088	-46.25
422.295	-31.91
422.503	-15.53
422.711	-62.63
422.918	19.29
423.126	7
423.334	-7.34
423.541	2.9
423.749	9.05
423.956	25.43
424.164	-5.29
424.372	27.48
424.579	50
424.787	21.33
424.994	-50.35
425.202	21.33
425.409	-62.63
425.617	-64.68
425.824	-19.63
426.032	-33.96
426.239	-5.29
426.447	-23.72
426.654	66.39
426.862	25.43
427.069	4.95
427.277	-95.4
427.484	19.29
427.692	-29.87
427.899	15.19
428.106	31.57
428.314	64.34
428.521	-11.43
428.728	-33.96
428.936	56.15
429.143	-58.54
429.351	39.76
429.558	9.05
429.765	84.82
429.972	-3.24
430.18	90.96
430.387	-9.39
430.594	2.9
430.801	37.72
431.009	-52.39
431.216	35.67
431.423	-23.72
431.63	35.67
431.838	-23.72
432.045	-27.82
432.252	-56.49
432.459	66.39
432.666	29.52
432.873	47.96
433.081	-11.43
433.288	0.85
433.495	39.76
433.702	-11.43
433.909	4.95
434.116	47.96
434.323	-21.67
434.53	-1.19
434.737	-15.53
434.944	13.14
435.151	-19.63
435.358	-25.77
435.565	37.72
435.772	-54.44
435.979	17.24
436.186	21.33
436.393	72.53
436.6	-17.58
436.807	4.95
437.014	-15.53
437.221	-11.43
437.428	0.85
437.635	-40.11
437.841	-27.82
438.048	-38.06
438.255	-7.34
438.462	-48.3
438.669	-5.29
438.876	-9.39
439.082	-38.06
439.289	4.95
439.496	-40.11
439.703	-17.58
439.91	31.57
440.116	64.34
440.323	-3.24
440.53	45.91
440.737	50
440.943	-81.07
441.15	-3.24
441.357	39.76
441.563	19.29
441.77	-7.34
441.977	-31.91
442.183	-107.69
442.39	23.38
442.597	-48.3
442.803	17.24
443.01	-33.96
443.216	47.96
443.423	-40.11
443.63	-21.67
443.836	-11.43
444.043	17.24
444.249	4.95
444.456	-52.39
444.662	-1.19
444.869	0.85
445.075	-15.53
445.282	13.14
445.488	-52.39
445.695	-52.39
445.901	27.48
446.107	64.34
446.314	-15.53
446.52	4.95
446.727	13.14
446.933	-17.58
447.139	-87.21
447.346	-17.58
447.552	29.52
447.759	58.2
447.965	-13.48
448.171	13.14
448.378	-93.35
448.584	-46.25
448.79	-31.91
448.996	-40.11
449.203	-60.59
449.409	25.43
449.615	-31.91
449.821	76.63
450.028	23.38
450.234	-111.78
450.44	-13.48
450.646	13.14
450.852	13.14
451.059	113.49
451.265	9.05
451.471	-3.24
451.677	13.14
451.883	27.48
452.089	-56.49
452.295	-48.3
452.502	-44.2
452.708	-56.49
452.914	-7.34
453.12	84.82
453.326	-56.49
453.532	-101.55
453.738	25.43
453.944	-5.29
454.15	-11.43
454.356	84.82
454.562	-13.48
454.768	76.63
454.974	27.48
455.18	11.09
455.386	-19.63
455.592	-50.35
455.798	64.34
456.003	35.67
456.209	15.19
456.415	-50.35
456.621	-11.43
456.827	35.67
457.033	29.52
457.239	-58.54
457.444	11.09
457.65	19.29
457.856	-27.82
458.062	35.67
458.268	-7.34
458.473	-5.29
458.679	25.43
458.885	54.1
459.091	-11.43
459.296	-11.43
459.502	-83.11
459.708	37.72
459.914	-11.43
460.119	-11.43
460.325	-7.34
460.531	-58.54
460.736	-27.82
460.942	-11.43
461.147	-23.72
461.353	-27.82
461.559	7
461.764	27.48
461.97	-36.01
462.175	11.09
462.381	-40.11
462.587	-13.48
462.792	37.72
462.998	-76.97
463.203	-97.45
463.409	25.43
463.614	7
463.82	25.43
464.025	-31.91
464.231	-119.98
464.436	-19.63
464.641	-17.58
464.847	-79.02
465.052	4.95
465.258	35.67
465.463	-23.72
465.669	45.91
465.874	4.95
466.079	-21.67
466.285	70.48
466.49	-95.4
466.695	13.14
466.901	-21.67
467.106	43.86
467.311	31.57
467.516	-13.48
467.722	29.52
467.927	-1.19
468.132	-21.67
468.338	23.38
468.543	25.43
468.748	-3.24
468.953	-9.39
469.158	-19.63
469.364	-64.68
469.569	58.2
469.774	-44.2
469.979	-31.91
470.184	64.34
470.389	-7.34
470.594	17.24
470.8	-11.43
471.005	-56.49
471.21	29.52
471.415	43.86
471.62	29.52
471.825	54.1
472.03	-3.24
472.235	-42.15
472.44	-31.91
472.645	-11.43
472.85	43.86
473.055	-15.53
473.26	72.53
473.465	50
473.67	-38.06
473.875	-15.53
474.08	-50.35
474.285	-46.25
474.49	-46.25
474.695	39.76
474.899	-62.63
475.104	74.58
475.309	21.33
475.514	9.05
475.719	-5.29
475.924	52.05
476.128	39.76
476.333	19.29
476.538	-13.48
476.743	-1.19
476.948	35.67
477.152	-44.2
477.357	39.76
477.562	-58.54
477.767	-7.34
477.971	127.83
478.176	37.72
478.381	-40.11
478.585	2.9
478.79	17.24
478.995	29.52
479.199	-25.77
479.404	7
479.609	-31.91
479.813	-25.77
480.018	23.38
480.223	-1.19
480.427	-33.96
480.632	-50.35
480.836	-70.83
481.041	4.95
481.245	-15.53
481.45	-17.58
481.654	-46.25
481.859	-11.43
482.063	-50.35
482.268	-3.24
482.472	-27.82
482.677	-21.67
482.881	-17.58
483.086	60.24
483.29	-25.77
483.495	-3.24
483.699	84.82
483.903	-27.82
484.108	-89.26
484.312	4.95
484.517	-36.01
484.721	45.91
484.925	-13.48
485.13	37.72
485.334	64.34
485.538	-23.72
485.743	7
485.947	-11.43
486.151	-36.01
486.355	2.9
486.56	-83.11
486.764	56.15
486.968	17.24
487.172	-9.39
487.377	-5.29
487.581	-46.25
487.785	-7.34
487.989	-5.29
488.193	117.59
488.397	19.29
488.602	0.85
488.806	15.19
489.01	-62.63
489.214	31.57
489.418	21.33
489.622	-3.24
489.826	11.09
490.03	66.39
490.234	-87.21
490.438	-3.24
490.642	-66.73
490.846	11.09
491.05	-44.2
491.254	66.39
491.458	78.68
491.662	39.76
491.866	4.95
492.07	17.24
492.274	-31.91
492.478	88.92
492.682	-46.25
492.886	119.64
493.09	-44.2
493.294	-21.67
493.498	-52.39
493.701	-70.83
493.905	17.24
494.109	-3.24
494.313	64.34
494.517	47.96
494.721	-97.45
494.924	-1.19
495.128	0.85
495.332	-68.78
495.536	-23.72
495.739	0.85
495.943	62.29
496.147	-3.24
496.351	-17.58
496.554	-68.78
496.758	19.29
496.962	-56.49
497.165	-42.15
497.369	17.24
497.573	-1.19
497.776	-36.01
497.98	-7.34
498.184	50
498.387	-23.72
498.591	54.1
498.794	68.44
498.998	23.38
499.202	-68.78
499.405	-7.34
499.609	9.05
499.812	37.72
500.016	-23.72
500.219	-21.67
500.423	-101.55
500.626	-7.34
500.83	9.05
501.033	-7.34
501.237	21.33
501.44	13.14
501.643	-17.58
501.847	17.24
502.05	45.91
502.254	11.09
502.457	-36.01
502.66	-3.24
502.864	15.19
503.067	43.86
503.271	-107.69
503.474	52.05
503.677	4.95
503.88	2.9
504.084	-36.01
504.287	13.14
504.49	-13.48
504.694	-13.48
504.897	41.81
505.1	-1.19
505.303	25.43
505.507	-7.34
505.71	-76.97
505.913	-66.73
506.116	13.14
506.319	-81.07
506.522	47.96
506.726	-40.11
506.929	-115.88
507.132	33.62
507.335	41.81
507.538	21.33
507.741	60.24
507.944	-23.72
508.147	-38.06
508.35	-36.01
508.553	-36.01
508.756	45.91
508.959	23.38
509.163	25.43
509.366	-23.72
509.569	74.58
509.771	17.24
509.974	93.01
510.177	9.05
510.38	-23.72
510.583	-21.67
510.786	-3.24
510.989	-23.72
511.192	-7.34
511.395	-27.82
511.598	52.05
511.801	-36.01
512.004	43.86
512.206	-50.35
512.409	11.09
512.612	-56.49
512.815	31.57
513.018	-17.58
513.22	23.38
513.423	-89.26
513.626	17.24
513.829	70.48
514.032	17.24
514.234	23.38
514.437	58.2
514.64	-50.35
514.842	-13.48
515.045	-23.72
515.248	-19.63
515.45	-7.34
515.653	-17.58
515.856	-48.3
516.058	72.53
516.261	-52.39
516.464	-29.87
516.666	-19.63
516.869	-44.2
517.071	-5.29
517.274	-31.91
517.477	29.52
517.679	-11.43
517.882	13.14
518.084	-21.67
518.287	-9.39
518.489	25.43
518.692	4.95
518.894	-42.15
519.097	-29.87
519.299	-58.54
519.501	39.76
519.704	31.57
519.906	21.33
520.109	27.48
520.311	-1.19
520.514	-25.77
520.716	-56.49
520.918	-1.19
521.121	-15.53
521.323	52.05
521.525	70.48
521.728	39.76
521.93	23.38
522.132	45.91
522.335	41.81
522.537	-79.02
522.739	-7.34
522.941	29.52
523.144	-48.3
523.346	29.52
523.548	-58.54
523.75	-23.72
523.952	-3.24
524.155	-42.15
524.357	17.24
524.559	-3.24
524.761	62.29
524.963	2.9
525.165	7
525.368	37.72
525.57	-40.11
525.772	-1.19
525.974	2.9
526.176	-13.48
526.378	4.95
526.58	15.19
526.782	-19.63
526.984	66.39
527.186	4.95
527.388	64.34
527.59	45.91
527.792	-9.39
527.994	-11.43
528.196	13.14
528.398	74.58
528.6	-7.34
528.802	-52.39
529.004	2.9
529.206	-15.53
529.408	-19.63
529.609	-62.63
529.811	13.14
530.013	52.05
530.215	23.38
530.417	64.34
530.619	21.33
530.821	-11.43
531.022	35.67
531.224	101.2
531.426	127.83
531.628	-40.11
531.829	37.72
532.031	-79.02
532.233	-3.24
532.435	-50.35
532.636	-83.11
532.838	19.29
533.04	15.19
533.241	17.24
533.443	-13.48
533.645	15.19
533.846	21.33
534.048	56.15
534.25	17.24
534.451	43.86
534.653	-5.29
534.855	-7.34
535.056	-126.12
535.258	54.1
535.459	64.34
535.661	29.52
535.862	-48.3
536.064	0.85
536.265	-5.29
536.467	-54.44
536.668	17.24
536.87	-38.06
537.071	29.52
537.273	-33.96
537.474	4.95
537.676	17.24
537.877	21.33
538.078	-42.15
538.28	2.9
538.481	-5.29
538.683	56.15
538.884	-33.96
539.085	-23.72
539.287	-40.11
539.488	-5.29
539.689	-11.43
539.891	-54.44
540.092	2.9
540.293	33.62
540.495	-11.43
540.696	60.24
540.897	-36.01
541.098	27.48
541.3	-29.87
541.501	0.85
541.702	-1.19
541.903	72.53
542.104	-27.82
542.306	25.43
542.507	-46.25
542.708	23.38
542.909	103.25
543.11	-64.68
543.311	-7.34
543.512	-15.53
543.713	-25.77
543.915	4.95
544.116	2.9
544.317	4.95
544.518	2.9
544.719	-9.39
544.92	-19.63
545.121	-31.91
545.322	15.19
545.523	68.44
545.724	-7.34
545.925	-60.59
546.126	35.67
546.327	-27.82
546.528	72.53
546.729	4.95
546.929	66.39
547.13	11.09
547.331	15.19
547.532	25.43
547.733	-5.29
547.934	43.86
548.135	29.52
548.336	-36.01
548.536	-11.43
548.737	7
548.938	17.24
549.139	19.29
549.34	-17.58
549.54	-25.77
549.741	33.62
549.942	-31.91
550.143	129.88
550.343	9.05
550.544	27.48
550.745	-31.91
550.945	-27.82
551.146	-3.24
551.347	35.67
551.547	47.96
551.748	-19.63
551.949	15.19
552.149	13.14
552.35	50
552.551	-11.43
552.751	-19.63
552.952	-44.2
553.152	-3.24
553.353	-3.24
553.553	-58.54
553.754	52.05
553.954	-11.43
554.155	-27.82
554.356	-15.53
554.556	-44.2
554.756	11.09
554.957	-15.53
555.157	-17.58
555.358	50
555.558	-21.67
555.759	-25.77
555.959	-11.43
556.159	13.14
556.36	-66.73
556.56	35.67
556.761	-66.73
556.961	2.9
557.161	-44.2
557.362	82.77
557.562	-52.39
557.762	4.95
557.963	-11.43
558.163	7
558.363	-1.19
558.563	9.05
558.764	2.9
558.964	-7.34
559.164	-11.43
559.364	-33.96
559.565	-74.92
559.765	-48.3
559.965	29.52
560.165	52.05
560.365	2.9
560.565	-17.58
560.766	-3.24
560.966	-70.83
561.166	60.24
561.366	-60.59
561.566	-54.44
561.766	-17.58
561.966	43.86
562.166	15.19
562.366	-70.83
562.566	-7.34
562.766	27.48
562.966	-3.24
563.166	0.85
563.366	54.1
563.566	17.24
563.766	-33.96
563.966	4.95
564.166	17.24
564.366	-89.26
564.566	-40.11
564.766	-62.63
564.966	41.81
565.166	-15.53
565.366	9.05
565.565	17.24
565.765	-23.72
565.965	-29.87
566.165	58.2
566.365	0.85
566.565	39.76
566.764	-5.29
566.964	33.62
567.164	-3.24
567.364	-27.82
567.564	60.24
567.763	-44.2
567.963	25.43
568.163	64.34
568.362	4.95
568.562	-3.24
568.762	-19.63
568.961	-11.43
569.161	15.19
569.361	11.09
569.56	-40.11
569.76	21.33
569.96	4.95
570.159	39.76
570.359	15.19
570.558	-5.29
570.758	-5.29
570.958	31.57
571.157	2.9
571.357	33.62
571.556	-23.72
571.756	50
571.955	25.43
572.155	-23.72
572.354	-36.01
572.554	-60.59
572.753	17.24
572.953	17.24
573.152	-27.82
573.351	11.09
573.551	60.24
573.75	52.05
573.95	27.48
574.149	60.24
574.348	11.09
574.548	-19.63
574.747	-1.19
574.946	47.96
575.146	29.52
575.345	-66.73
575.544	21.33
575.744	-31.91
575.943	15.19
576.142	-33.96
576.342	9.05
576.541	-52.39
576.74	-15.53
576.939	56.15
577.138	68.44
577.338	13.14
577.537	23.38
577.736	31.57
577.935	25.43
578.134	7
578.333	60.24
578.533	-68.78
578.732	-21.67
578.931	-70.83
579.13	39.76
579.329	9.05
579.528	47.96
579.727	-27.82
579.926	-36.01
580.125	56.15
580.324	-5.29
580.523	-60.59
580.722	-1.19
580.921	-17.58
581.12	0.85
581.319	-27.82
581.518	-27.82
581.717	-42.15
581.916	43.86
582.115	41.81
582.314	35.67
582.513	43.86
582.712	-21.67
582.911	4.95
583.109	29.52
583.308	-42.15
583.507	-27.82
583.706	50
583.905	-54.44
584.104	-9.39
584.302	11.09
584.501	-23.72
584.7	15.19
584.899	-11.43
585.098	-13.48
585.296	21.33
585.495	31.57
585.694	9.05
585.892	7
586.091	-52.39
586.29	29.52
586.488	0.85
586.687	-74.92
586.886	-40.11
587.084	17.24
587.283	-11.43
587.482	-29.87
587.68	21.33
587.879	-42.15
588.077	41.81
588.276	62.29
588.475	25.43
588.673	-31.91
588.872	-15.53
589.07	13.14
589.269	-29.87
589.467	25.43
589.666	-40.11
589.864	-38.06
590.063	62.29
590.261	-7.34
590.46	47.96
590.658	-27.82
590.857	45.91
591.055	13.14
591.253	7
591.452	-54.44
591.65	33.62
591.848	-79.02
592.047	-40.11
592.245	-7.34
592.444	13.14
592.642	43.86
592.84	31.57
593.038	47.96
593.237	-7.34
593.435	27.48
593.633	-38.06
593.832	15.19
594.03	9.05
594.228	4.95
594.426	62.29
594.624	43.86
594.823	80.72
595.021	-31.91
595.219	64.34
595.417	-7.34
595.615	15.19
595.813	45.91
596.012	-5.29
596.21	-25.77
596.408	-54.44
596.606	25.43
596.804	25.43
597.002	31.57
597.2	-89.26
597.398	17.24
597.596	-25.77
597.794	-42.15
597.992	9.05
598.19	7
598.388	-115.88
598.586	2.9
598.784	58.2
598.982	23.38
599.18	-113.83
599.378	-38.06
599.576	37.72
599.774	-25.77
599.972	27.48
600.17	-23.72
600.368	25.43
600.565	-15.53
600.763	-52.39
600.961	27.48
601.159	-64.68
601.357	-23.72
601.555	-11.43
601.752	-17.58
601.95	11.09
602.148	-17.58
602.346	-36.01
602.544	-36.01
602.741	17.24
602.939	0.85
603.137	-19.63
603.334	19.29
603.532	-7.34
603.73	-7.34
603.927	66.39
604.125	-40.11
604.323	27.48
604.52	35.67
604.718	43.86
604.916	-13.48
605.113	27.48
605.311	25.43
605.508	-81.07
605.706	19.29
605.904	-54.44
606.101	2.9
606.299	17.24
606.496	-107.69
606.694	39.76
606.891	-52.39
607.089	7
607.286	0.85
607.484	25.43
607.681	37.72
607.879	-15.53
608.076	-64.68
608.273	23.38
608.471	45.91
608.668	21.33
608.866	-17.58
609.063	-9.39
609.26	66.39
609.458	-21.67
609.655	41.81
609.852	31.57
610.05	70.48
610.247	2.9
610.444	-3.24
610.642	-36.01
610.839	2.9
611.036	-46.25
611.233	-3.24
611.431	7
611.628	47.96
611.825	54.1
612.022	19.29
612.22	15.19
612.417	-33.96
612.614	19.29
612.811	27.48
613.008	54.1
613.205	-11.43
613.402	13.14
613.6	27.48
613.797	35.67
613.994	97.11
614.191	-1.19
614.388	-27.82
614.585	-1.19
614.782	56.15
614.979	-27.82
615.176	-7.34
615.373	-5.29
615.57	4.95
615.767	9.05
615.964	-74.92
616.161	64.34
616.358	-62.63
616.555	27.48
616.752	119.64
616.949	35.67
617.146	-46.25
617.343	-19.63
617.539	-70.83
617.736	-58.54
617.933	27.48
618.13	35.67
618.327	52.05
618.524	11.09
618.721	-23.72
618.917	-40.11
619.114	-3.24
619.311	-11.43
619.508	29.52
619.704	-31.91
619.901	11.09
620.098	9.05
620.295	4.95
620.491	-17.58
620.688	11.09
620.885	-1.19
621.081	-58.54
621.278	-42.15
621.475	-19.63
621.671	23.38
621.868	45.91
622.065	-48.3
622.261	-15.53
622.458	31.57
622.655	-1.19
622.851	58.2
623.048	-7.34
623.244	9.05
623.441	11.09
623.637	-64.68
623.834	-3.24
624.03	62.29
624.227	-7.34
624.423	-1.19
624.62	-3.24
624.816	-3.24
625.013	7
625.209	-15.53
625.406	25.43
625.602	-3.24
625.798	-19.63
625.995	-27.82
626.191	43.86
626.388	-23.72
626.584	27.48
626.78	45.91
626.977	19.29
627.173	-46.25
627.369	-23.72
627.566	27.48
627.762	11.09
627.958	33.62
628.154	107.35
628.351	11.09
628.547	93.01
628.743	4.95
628.939	-13.48
629.136	54.1
629.332	-13.48
629.528	97.11
629.724	-33.96
629.92	0.85
630.116	21.33
630.313	17.24
630.509	-40.11
630.705	-72.87
630.901	72.53
631.097	-11.43
631.293	7
631.489	-7.34
631.685	-19.63
631.881	4.95
632.077	9.05
632.273	82.77
632.469	13.14
632.665	-36.01
632.861	76.63
633.057	9.05
633.253	4.95
633.449	50
633.645	17.24
633.841	-36.01
634.037	62.29
634.233	27.48
634.429	-36.01
634.625	-1.19
634.821	76.63
635.017	13.14
635.212	66.39
635.408	64.34
635.604	66.39
635.8	-91.31
635.996	-11.43
636.191	-5.29
636.387	9.05
636.583	27.48
636.779	-21.67
636.975	-13.48
637.17	23.38
637.366	-9.39
637.562	-54.44
637.757	0.85
637.953	41.81
638.149	0.85
638.345	-9.39
638.54	7
638.736	4.95
638.931	-23.72
639.127	-3.24
639.323	0.85
639.518	-11.43
639.714	74.58
639.909	4.95
640.105	0.85
640.301	37.72
640.496	62.29
640.692	-76.97
640.887	0.85
641.083	2.9
641.278	23.38
641.474	9.05
641.669	-21.67
641.865	68.44
642.06	-72.87
642.256	11.09
642.451	-36.01
642.646	21.33
642.842	-15.53
643.037	21.33
643.233	-11.43
643.428	0.85
643.623	-23.72
643.819	-48.3
644.014	4.95
644.209	70.48
644.405	78.68
644.6	74.58
644.795	29.52
644.99	29.52
645.186	-40.11
645.381	78.68
645.576	4.95
645.771	56.15
645.967	-11.43
646.162	33.62
646.357	-23.72
646.552	-9.39
646.747	-15.53
646.943	-17.58
647.138	33.62
647.333	25.43
647.528	136.02
647.723	7
647.918	-5.29
648.113	-7.34
648.308	0.85
648.504	43.86
648.699	54.1
648.894	-7.34
649.089	-29.87
649.284	9.05
649.479	-15.53
649.674	-5.29
649.869	-40.11
650.064	31.57
650.259	-44.2
650.454	21.33
650.649	2.9
650.844	9.05
651.038	-31.91
651.233	-1.19
651.428	-15.53
651.623	-48.3
651.818	-5.29
652.013	41.81
652.208	-31.91
652.403	15.19
652.597	-19.63
652.792	58.2
652.987	-62.63
653.182	4.95
653.377	-46.25
653.571	11.09
653.766	-48.3
653.961	27.48
654.156	-23.72
654.35	21.33
654.545	-33.96
654.74	-36.01
654.935	-1.19
655.129	97.11
655.324	54.1
655.519	-52.39
655.713	-48.3
655.908	35.67
656.102	11.09
656.297	41.81
656.492	-7.34
656.686	-3.24
656.881	-74.92
657.075	50
657.27	-58.54
657.464	-27.82
657.659	-3.24
657.854	33.62
658.048	-1.19
658.243	17.24
658.437	-3.24
658.631	-21.67
658.826	-17.58
659.02	-17.58
659.215	-31.91
659.409	50
659.604	-64.68
659.798	21.33
659.992	39.76
660.187	-38.06
660.381	-11.43
660.576	109.4
660.77	-9.39
660.964	19.29
661.159	4.95
661.353	-23.72
661.547	47.96
661.742	-7.34
661.936	0.85
662.13	60.24
662.324	-23.72
662.519	25.43
662.713	21.33
662.907	41.81
663.101	-19.63
663.295	-33.96
663.49	109.4
663.684	-25.77
663.878	-17.58
664.072	-70.83
664.266	-60.59
664.46	17.24
664.654	37.72
664.849	-23.72
665.043	-50.35
665.237	9.05
665.431	7
665.625	31.57
665.819	19.29
666.013	17.24
666.207	-29.87
666.401	56.15
666.595	17.24
666.789	-29.87
666.983	-15.53
667.177	-31.91
667.371	-9.39
667.565	-21.67
667.759	-48.3
667.953	-81.07
668.147	13.14
668.34	58.2
668.534	-25.77
668.728	-9.39
668.922	7
669.116	62.29
669.31	31.57
669.504	64.34
669.697	-23.72
669.891	4.95
670.085	-27.82
670.279	13.14
670.473	54.1
670.666	19.29
670.86	-7.34
671.054	56.15
671.248	13.14
671.441	54.1
671.635	-15.53
671.829	35.67
672.022	-5.29
672.216	-27.82
672.41	9.05
672.603	37.72
672.797	9.05
672.99	13.14
673.184	19.29
673.378	-38.06
673.571	-5.29
673.765	11.09
673.958	-93.35
674.152	33.62
674.345	52.05
674.539	-9.39
674.733	4.95
674.926	-70.83
675.12	17.24
675.313	-33.96
675.506	-15.53
675.7	-27.82
675.893	39.76
676.087	4.95
676.28	-13.48
676.474	39.76
676.667	-17.58
676.86	68.44
677.054	0.85
677.247	-27.82
677.441	33.62
677.634	29.52
677.827	-48.3
678.02	0.85
678.214	56.15
678.407	-27.82
678.6	-5.29
678.794	-13.48
678.987	9.05
679.18	0.85
679.373	19.29
679.567	-42.15
679.76	50
679.953	17.24
680.146	21.33
680.339	60.24
680.533	-46.25
680.726	-11.43
680.919	39.76
681.112	9.05
681.305	-60.59
681.498	35.67
681.691	-7.34
681.884	-5.29
682.077	-7.34
682.271	-64.68
682.464	-29.87
682.657	-36.01
682.85	29.52
683.043	80.72
683.236	56.15
683.429	-9.39
683.622	43.86
683.815	-7.34
684.008	25.43
684.201	68.44
684.393	-66.73
684.586	-74.92
684.779	-5.29
684.972	-21.67
685.165	37.72
685.358	-64.68
685.551	47.96
685.744	-52.39
685.937	-38.06
686.129	23.38
686.322	86.87
686.515	29.52
686.708	-44.2
686.901	-38.06
687.093	-79.02
687.286	-7.34
687.479	-1.19
687.672	41.81
687.864	-15.53
688.057	-19.63
688.25	33.62
688.442	35.67
688.635	78.68
688.828	-72.87
689.02	-31.91
689.213	-23.72
689.406	-54.44
689.598	47.96
689.791	-7.34
689.984	4.95
690.176	-15.53
690.369	-31.91
690.561	72.53
690.754	17.24
690.946	-11.43
691.139	17.24
691.331	7
691.524	23.38
691.716	-36.01
691.909	0.85
692.101	66.39
692.294	7
692.486	15.19
692.679	33.62
692.871	-44.2
693.063	23.38
693.256	-5.29
693.448	7
693.641	-19.63
693.833	0.85
694.025	-38.06
694.218	-62.63
694.41	-64.68
694.602	50
694.795	-48.3
694.987	-3.24
695.179	-15.53
695.372	-23.72
695.564	-3.24
695.756	-19.63
695.948	2.9
696.14	54.1
696.333	-13.48
696.525	-66.73
696.717	-76.97
696.909	86.87
697.101	-101.55
697.294	54.1
697.486	50
697.678	4.95
697.87	-23.72
698.062	54.1
698.254	-7.34
698.446	-3.24
698.638	-33.96
698.83	-3.24
699.022	-15.53
699.215	-5.29
699.407	-31.91
699.599	45.91
699.791	2.9
699.983	15.19
700.175	11.09
700.367	33.62
700.558	-50.35
700.75	80.72
700.942	54.1
701.134	47.96
701.326	23.38
701.518	-58.54
701.71	4.95
701.902	-21.67
702.094	9.05
702.286	11.09
702.477	-54.44
702.669	-72.87
702.861	9.05
703.053	35.67
703.245	-36.01
703.436	-23.72
703.628	56.15
703.82	-54.44
704.012	2.9
704.203	47.96
704.395	37.72
704.587	23.38
704.779	-19.63
704.97	47.96
705.162	33.62
705.354	-7.34
705.545	27.48
705.737	-3.24
705.929	-48.3
706.12	-11.43
706.312	33.62
706.503	58.2
706.695	-11.43
706.887	72.53
707.078	-31.91
707.27	27.48
707.461	7
707.653	-19.63
707.844	17.24
708.036	-70.83
708.227	37.72
708.419	35.67
708.61	9.05
708.802	29.52
708.993	-40.11
709.185	-13.48
709.376	19.29
709.567	19.29
709.759	-11.43
709.95	-11.43
710.141	68.44
710.333	-23.72
710.524	-11.43
710.716	-15.53
710.907	88.92
711.098	21.33
711.289	33.62
711.481	-3.24
711.672	-60.59
711.863	15.19
712.055	39.76
712.246	11.09
712.437	99.16
712.628	76.63
712.82	2.9
713.011	60.24
713.202	-48.3
713.393	31.57
713.584	60.24
713.775	9.05
713.967	-1.19
714.158	-48.3
714.349	21.33
714.54	35.67
714.731	-48.3
714.922	62.29
715.113	-152.74
715.304	39.76
715.495	-15.53
715.686	41.81
715.877	-7.34
716.068	31.57
716.259	0.85
716.45	-40.11
716.641	39.76
716.832	-23.72
717.023	-83.11
717.214	-31.91
717.405	58.2
717.596	13.14
717.787	11.09
717.978	25.43
718.169	82.77
718.36	-3.24
718.55	-21.67
718.741	-9.39
718.932	-66.73
719.123	72.53
719.314	17.24
719.505	4.95
719.695	-19.63
719.886	-64.68
720.077	-11.43
720.268	-48.3
720.458	17.24
720.649	-1.19
720.84	17.24
721.031	-50.35
721.221	-7.34
721.412	-27.82
721.603	-9.39
721.793	62.29
721.984	-40.11
722.175	41.81
722.365	-83.11
722.556	29.52
722.746	-54.44
722.937	4.95
723.128	7
723.318	68.44
723.509	27.48
723.699	-9.39
723.89	17.24
724.08	-11.43
724.271	-66.73
724.461	-9.39
724.652	-15.53
724.842	37.72
725.033	-44.2
725.223	9.05
725.414	-11.43
725.604	9.05
725.794	7
725.985	0.85
726.175	-44.2
726.366	-23.72
726.556	15.19
726.746	-29.87
726.937	-21.67
727.127	-13.48
727.317	-9.39
727.508	-29.87
727.698	19.29
727.888	41.81
728.079	7
728.269	54.1
728.459	-13.48
728.649	-5.29
728.84	-19.63
729.03	41.81
729.22	-46.25
729.41	56.15
729.6	-11.43
729.791	11.09
729.981	-29.87
730.171	13.14
730.361	-64.68
730.551	29.52
730.741	-87.21
730.931	0.85
731.121	-72.87
731.311	47.96
731.502	-31.91
731.692	13.14
731.882	-11.43
732.072	-33.96
732.262	-27.82
732.452	7
732.642	21.33
732.832	-17.58
733.022	56.15
733.212	-33.96
733.402	33.62
733.591	-36.01
733.781	21.33
733.971	-15.53
734.161	-36.01
734.351	62.29
734.541	-23.72
734.731	25.43
734.921	4.95
735.111	-19.63
735.3	-19.63
735.49	25.43
735.68	-21.67
735.87	-54.44
736.06	25.43
736.249	11.09
736.439	-5.29
736.629	4.95
736.819	33.62
737.008	-1.19
737.198	-9.39
737.388	9.05
737.577	-66.73
737.767	47.96
737.957	-15.53
738.146	-54.44
738.336	37.72
738.526	-70.83
738.715	-54.44
738.905	43.86
739.094	-111.78
739.284	-91.31
739.474	-31.91
739.663	43.86
739.853	-3.24
740.042	21.33
740.232	-36.01
740.421	39.76
740.611	4.95
740.8	-17.58
740.99	7
741.179	2.9
741.369	23.38
741.558	-7.34
741.748	-48.3
741.937	-70.83
742.126	60.24
742.316	15.19
742.505	-40.11
742.695	0.85
742.884	0.85
743.073	-5.29
743.263	-25.77
743.452	-1.19
743.641	-36.01
743.831	-23.72
744.02	54.1
744.209	-15.53
744.398	-36.01
744.588	0.85
744.777	35.67
744.966	-119.98
745.155	-9.39
745.345	2.9
745.534	11.09
745.723	-11.43
745.912	-9.39
746.101	21.33
746.29	-1.19
746.48	-119.98
746.669	-36.01
746.858	0.85
747.047	-3.24
747.236	4.95
747.425	-42.15
747.614	76.63
747.803	7
747.992	-3.24
748.181	-21.67
748.37	-72.87
748.559	-36.01
748.748	-15.53
748.937	23.38
749.126	-21.67
749.315	-89.26
749.504	-38.06
749.693	0.85
749.882	-27.82
750.071	33.62
750.26	-15.53
750.449	4.95
750.638	11.09
750.826	-23.72
751.015	-54.44
751.204	-21.67
751.393	-9.39
751.582	4.95
751.771	11.09
751.959	-46.25
752.148	86.87
752.337	-48.3
752.526	-5.29
752.714	-48.3
752.903	25.43
753.092	31.57
753.281	17.24
753.469	-54.44
753.658	-27.82
753.847	-7.34
754.035	-31.91
754.224	45.91
754.413	-29.87
754.601	-7.34
754.79	2.9
754.979	-54.44
755.167	-64.68
755.356	-21.67
755.544	19.29
755.733	-5.29
755.921	-1.19
756.11	31.57
756.298	4.95
756.487	-15.53
756.675	78.68
756.864	-33.96
757.052	21.33
757.241	-81.07
757.429	-44.2
757.618	54.1
757.806	-56.49
757.995	-29.87
758.183	15.19
758.371	11.09
758.56	0.85
758.748	58.2
758.937	23.38
759.125	-46.25
759.313	7
759.502	25.43
759.69	90.96
759.878	25.43
760.066	-3.24
760.255	-48.3
760.443	-17.58
760.631	13.14
760.819	58.2
761.008	-31.91
761.196	13.14
761.384	4.95
761.572	-3.24
761.761	41.81
761.949	-1.19
762.137	-50.35
762.325	35.67
762.513	11.09
762.701	39.76
762.889	-15.53
763.077	-25.77
763.266	9.05
763.454	33.62
763.642	-11.43
763.83	25.43
764.018	11.09
764.206	-21.67
764.394	68.44
764.582	-27.82
764.77	-31.91
764.958	2.9
765.146	74.58
765.334	-3.24
765.522	-15.53
765.71	33.62
765.898	17.24
766.085	33.62
766.273	-36.01
766.461	-19.63
766.649	-7.34
766.837	21.33
767.025	-50.35
767.213	29.52
767.401	41.81
767.588	33.62
767.776	17.24
767.964	131.92
768.152	-9.39
768.339	43.86
768.527	-27.82
768.715	-3.24
768.903	-31.91
769.09	-11.43
769.278	33.62
769.466	-3.24
769.654	-11.43
769.841	9.05
770.029	-7.34
770.217	-33.96
770.404	-15.53
770.592	0.85
770.779	-21.67
770.967	23.38
771.155	-62.63
771.342	-31.91
771.53	-40.11
771.717	43.86
771.905	68.44
772.092	-64.68
772.28	25.43
772.467	11.09
772.655	-21.67
772.842	-27.82
773.03	7
773.217	-15.53
773.405	25.43
773.592	47.96
773.78	23.38
773.967	9.05
774.154	15.19
774.342	27.48
774.529	47.96
774.717	35.67
774.904	-1.19
775.091	0.85
775.279	-42.15
775.466	-42.15
775.653	-40.11
775.841	43.86
776.028	-19.63
776.215	9.05
776.402	-74.92
776.59	2.9
776.777	-19.63
776.964	-13.48
777.151	41.81
777.338	-36.01
777.526	-17.58
777.713	50
777.9	-56.49
778.087	-19.63
778.274	19.29
778.461	54.1
778.649	-81.07
778.836	37.72
779.023	19.29
779.21	60.24
779.397	-19.63
779.584	78.68
779.771	11.09
779.958	15.19
780.145	-91.31
780.332	13.14
780.519	41.81
780.706	11.09
780.893	56.15
781.08	2.9
781.267	78.68
781.454	-62.63
781.641	19.29
781.828	-40.11
782.015	-44.2
782.202	-13.48
782.388	2.9
782.575	52.05
782.762	21.33
782.949	-13.48
783.136	37.72
783.323	-7.34
783.509	33.62
783.696	-42.15
783.883	27.48
784.07	-1.19
784.257	-15.53
784.443	9.05
784.63	-42.15
784.817	47.96
785.004	-40.11
785.19	-21.67
785.377	13.14
785.564	11.09
785.75	21.33
785.937	9.05
786.124	52.05
786.31	72.53
786.497	-25.77
786.683	45.91
786.87	-17.58
787.057	21.33
787.243	27.48
787.43	-36.01
787.616	-46.25
787.803	-3.24
787.989	39.76
788.176	-11.43
788.362	80.72
788.549	45.91
788.735	-5.29
788.922	-54.44
789.108	-31.91
789.295	-3.24
789.481	11.09
789.668	-5.29
789.854	-29.87
790.04	-58.54
790.227	7
790.413	-15.53
790.599	35.67
790.786	17.24
790.972	21.33
791.158	-17.58
791.345	-15.53
791.531	21.33
791.717	23.38
791.904	88.92
792.09	-62.63
792.276	-21.67
792.462	-60.59
792.649	-56.49
792.835	-3.24
793.021	-58.54
793.207	41.81
793.393	70.48
793.58	-46.25
793.766	4.95
793.952	47.96
794.138	-54.44
794.324	-23.72
794.51	9.05
794.696	-19.63
794.882	-17.58
795.069	41.81
795.255	0.85
795.441	-17.58
795.627	50
795.813	4.95
795.999	35.67
796.185	56.15
796.371	-17.58
796.557	4.95
796.743	-23.72
796.929	-5.29
797.115	-27.82
797.3	-19.63
797.486	15.19
797.672	-19.63
797.858	-19.63
798.044	-46.25
798.23	25.43
798.416	-25.77
798.602	9.05
798.788	54.1
798.973	64.34
799.159	-19.63
799.345	9.05
799.531	0.85
799.717	-17.58
799.902	15.19
800.088	80.72
800.274	-36.01
800.46	37.72
800.645	-46.25
800.831	37.72
801.017	25.43
801.202	-31.91
801.388	9.05
801.574	-38.06
801.759	64.34
801.945	-17.58
802.131	-109.74
802.316	41.81
802.502	-11.43
802.687	33.62
802.873	17.24
803.058	-23.72
803.244	-62.63
803.43	13.14
803.615	17.24
803.801	2.9
803.986	-46.25
804.172	-79.02
804.357	33.62
804.543	33.62
804.728	-5.29
804.913	-31.91
805.099	111.44
805.284	-46.25
805.47	33.62
805.655	25.43
805.84	-48.3
806.026	25.43
806.211	-40.11
806.397	-101.55
806.582	-36.01
806.767	-29.87
806.953	-48.3
807.138	23.38
807.323	0.85
807.508	23.38
807.694	-27.82
807.879	15.19
808.064	35.67
808.249	-3.24
808.435	-52.39
808.62	37.72
808.805	-54.44
808.99	-21.67
809.175	31.57
809.361	-7.34
809.546	76.63
809.731	43.86
809.916	-5.29
810.101	11.09
810.286	4.95
810.471	-29.87
810.656	-76.97
810.841	-5.29
811.026	-19.63
811.211	27.48
811.396	35.67
811.581	-23.72
811.766	47.96
811.951	-29.87
812.136	41.81
812.321	-3.24
812.506	-19.63
812.691	19.29
812.876	25.43
813.061	27.48
813.246	-31.91
813.431	13.14
813.616	-85.16
813.801	-70.83
813.986	-27.82
814.17	66.39
814.355	-5.29
814.54	-15.53
814.725	2.9
814.91	11.09
815.094	37.72
815.279	-60.59
815.464	19.29
815.649	-15.53
815.833	-15.53
816.018	43.86
816.203	-1.19
816.388	45.91
816.572	-21.67
816.757	21.33
816.942	-42.15
817.126	41.81
817.311	17.24
817.496	-23.72
817.68	-40.11
817.865	-50.35
818.049	41.81
818.234	-66.73
818.419	2.9
818.603	60.24
818.788	-31.91
818.972	9.05
819.157	-48.3
819.341	78.68
819.526	52.05
819.71	19.29
819.895	41.81
820.079	-15.53
820.264	17.24
820.448	-3.24
820.633	-48.3
820.817	-46.25
821.001	33.62
821.186	0.85
821.37	-85.16
821.554	-3.24
821.739	-44.2
821.923	72.53
822.108	70.48
822.292	35.67
822.476	-5.29
822.66	41.81
822.845	-76.97
823.029	-60.59
823.213	31.57
823.398	35.67
823.582	-81.07
823.766	-52.39
823.95	-29.87
824.134	9.05
824.319	-58.54
824.503	74.58
824.687	-27.82
824.871	-48.3
825.055	-23.72
825.239	86.87
825.423	-56.49
825.608	76.63
825.792	-27.82
825.976	-27.82
826.16	-15.53
826.344	-40.11
826.528	-36.01
826.712	0.85
826.896	-50.35
827.08	0.85
827.264	97.11
827.448	-29.87
827.632	80.72
827.816	62.29
828	-15.53
828.184	11.09
828.368	25.43
828.552	7
828.736	-1.19
828.919	29.52
829.103	-40.11
829.287	17.24
829.471	13.14
829.655	25.43
829.839	-23.72
830.023	7
830.206	-81.07
830.39	7
830.574	9.05
830.758	-79.02
830.941	-25.77
831.125	54.1
831.309	45.91
831.493	68.44
831.676	-5.29
831.86	52.05
832.044	43.86
832.227	-36.01
832.411	-11.43
832.595	-25.77
832.778	68.44
832.962	-36.01
833.146	-56.49
833.329	-17.58
833.513	-17.58
833.696	31.57
833.88	70.48
834.064	17.24
834.247	-19.63
834.431	-13.48
834.614	-48.3
834.798	31.57
834.981	-17.58
835.165	15.19
835.348	-1.19
835.532	52.05
835.715	-9.39
835.898	4.95
836.082	4.95
836.265	29.52
836.449	56.15
836.632	50
836.815	-1.19
836.999	-3.24
837.182	60.24
837.365	25.43
837.549	37.72
837.732	-13.48
837.915	-7.34
838.099	-38.06
838.282	4.95
838.465	-3.24
838.648	-13.48
838.832	47.96
839.015	19.29
839.198	-9.39
839.381	-33.96
839.565	21.33
839.748	-11.43
839.931	-11.43
840.114	-54.44
840.297	-42.15
840.48	119.64
840.663	-13.48
840.847	-64.68
841.03	29.52
841.213	47.96
841.396	43.86
841.579	-15.53
841.762	-36.01
841.945	-56.49
842.128	2.9
842.311	-66.73
842.494	60.24
842.677	-91.31
842.86	21.33
843.043	-74.92
843.226	15.19
843.409	-5.29
843.592	76.63
843.775	-15.53
843.958	0.85
844.141	0.85
844.323	25.43
844.506	13.14
844.689	19.29
844.872	31.57
845.055	33.62
845.238	-1.19
845.42	80.72
845.603	-38.06
845.786	21.33
845.969	54.1
846.152	52.05
846.334	56.15
846.517	-19.63
846.7	31.57
846.883	19.29
847.065	-85.16
847.248	23.38
847.431	-58.54
847.613	-3.24
847.796	62.29
847.979	31.57
848.161	2.9
848.344	-33.96
848.526	-31.91
848.709	-31.91
848.892	-19.63
849.074	21.33
849.257	-17.58
849.439	60.24
849.622	-5.29
849.804	17.24
849.987	33.62
850.169	80.72
850.352	-48.3
850.534	-23.72
850.717	50
850.899	7
851.082	78.68
851.264	62.29
851.446	-23.72
851.629	29.52
851.811	-44.2
851.994	-3.24
852.176	41.81
852.358	50
852.541	-1.19
852.723	-31.91
852.905	-1.19
853.088	-25.77
853.27	-50.35
853.452	99.16
853.635	-91.31
853.817	-21.67
853.999	-58.54
854.181	17.24
854.363	-27.82
854.546	33.62
854.728	-48.3
854.91	-11.43
855.092	43.86
855.274	-19.63
855.457	9.05
855.639	-23.72
855.821	37.72
856.003	13.14
856.185	7
856.367	-11.43
856.549	21.33
856.731	-15.53
856.913	19.29
857.095	31.57
857.277	21.33
857.459	15.19
857.641	-62.63
857.823	29.52
858.005	15.19
858.187	-89.26
858.369	-27.82
858.551	41.81
858.733	-1.19
858.915	13.14
859.097	-25.77
859.279	31.57
859.461	23.38
859.643	-36.01
859.824	-38.06
860.006	15.19
860.188	-27.82
860.37	19.29
860.552	13.14
860.734	-36.01
860.915	-17.58
861.097	31.57
861.279	-60.59
861.461	97.11
861.642	-40.11
861.824	25.43
862.006	-58.54
862.188	39.76
862.369	-31.91
862.551	35.67
862.733	-9.39
862.914	-29.87
863.096	-27.82
863.278	9.05
863.459	31.57
863.641	-27.82
863.822	35.67
864.004	-9.39
864.185	-19.63
864.367	-44.2
864.549	-27.82
864.73	11.09
864.912	-46.25
865.093	-27.82
865.275	-64.68
865.456	-50.35
865.638	9.05
865.819	-11.43
866.001	17.24
866.182	0.85
866.363	47.96
866.545	84.82
866.726	17.24
866.908	-27.82
867.089	-48.3
867.27	13.14
867.452	-48.3
867.633	60.24
867.814	-33.96
867.996	-3.24
868.177	15.19
868.358	-48.3
868.54	0.85
868.721	-19.63
868.902	11.09
869.083	33.62
869.265	-99.5
869.446	13.14
869.627	25.43
869.808	-83.11
869.989	-1.19
870.171	33.62
870.352	4.95
870.533	-27.82
870.714	35.67
870.895	-11.43
871.076	-21.67
871.257	-36.01
871.438	-1.19
871.619	74.58
871.801	-54.44
871.982	25.43
872.163	9.05
872.344	19.29
872.525	29.52
872.706	-19.63
872.887	-31.91
873.068	-21.67
873.249	-17.58
873.43	2.9
873.61	-31.91
873.791	23.38
873.972	21.33
874.153	4.95
874.334	58.2
874.515	-36.01
874.696	54.1
874.877	23.38
875.058	-64.68
875.238	7
875.419	-44.2
875.6	4.95
875.781	19.29
875.962	-29.87
876.142	-42.15
876.323	-1.19
876.504	-15.53
876.685	-40.11
876.865	2.9
877.046	-1.19
877.227	-42.15
877.407	47.96
877.588	-11.43
877.769	-21.67
877.949	23.38
878.13	-25.77
878.311	-15.53
878.491	-1.19
878.672	-56.49
878.853	33.62
879.033	-1.19
879.214	13.14
879.394	-29.87
879.575	27.48
879.755	-11.43
879.936	25.43
880.116	27.48
880.297	41.81
880.477	-38.06
880.658	-9.39
880.838	-36.01
881.019	-29.87
881.199	-56.49
881.38	-46.25
881.56	72.53
881.74	-3.24
881.921	-15.53
882.101	31.57
882.281	-11.43
882.462	-40.11
882.642	50
882.822	-70.83
883.003	4.95
883.183	-25.77
883.363	31.57
883.544	-23.72
883.724	-70.83
883.904	-13.48
884.084	-93.35
884.265	-29.87
884.445	19.29
884.625	2.9
884.805	15.19
884.985	-44.2
885.166	-62.63
885.346	4.95
885.526	-72.87
885.706	-68.78
885.886	-7.34
886.066	25.43
886.246	45.91
886.426	-23.72
886.606	-29.87
886.787	47.96
886.967	-38.06
887.147	-7.34
887.327	-1.19
887.507	-7.34
887.687	-19.63
887.867	54.1
888.047	80.72
888.227	-74.92
888.406	37.72
888.586	-3.24
888.766	-7.34
888.946	-21.67
889.126	-38.06
889.306	-50.35
889.486	-72.87
889.666	76.63
889.846	-11.43
890.025	-40.11
890.205	-17.58
890.385	43.86
890.565	39.76
890.745	-58.54
890.924	27.48
891.104	41.81
891.284	-15.53
891.464	-11.43
891.643	52.05
891.823	72.53
892.003	-19.63
892.183	-3.24
892.362	-27.82
892.542	-27.82
892.722	-29.87
892.901	-46.25
893.081	25.43
893.26	41.81
893.44	52.05
893.62	-31.91
893.799	2.9
893.979	37.72
894.158	-13.48
894.338	47.96
894.517	43.86
894.697	62.29
894.877	-17.58
895.056	-44.2
895.236	-21.67
895.415	19.29
895.594	25.43
895.774	-50.35
895.953	-1.19
896.133	-40.11
896.312	23.38
896.492	4.95
896.671	-5.29
896.85	35.67
897.03	-44.2
897.209	-70.83
897.388	7
897.568	-33.96
897.747	-5.29
897.926	11.09
898.106	-91.31
898.285	7
898.464	-17.58
898.643	37.72
898.823	50
899.002	11.09
899.181	29.52
899.36	-33.96
899.54	-1.19
899.719	62.29
899.898	-23.72
900.077	54.1
900.256	-3.24
900.435	-9.39
900.614	31.57
900.794	-7.34
900.973	-19.63
901.152	19.29
901.331	-1.19
901.51	70.48
901.689	-3.24
901.868	-52.39
902.047	-1.19
902.226	33.62
902.405	25.43
902.584	9.05
902.763	33.62
902.942	-105.64
903.121	-31.91
903.3	7
903.479	-27.82
903.658	70.48
903.837	-62.63
904.015	70.48
904.194	-40.11
904.373	-21.67
904.552	-15.53
904.731	-19.63
904.91	17.24
905.089	52.05
905.267	-1.19
905.446	66.39
905.625	-7.34
905.804	-11.43
905.982	76.63
906.161	-68.78
906.34	-7.34
906.519	21.33
906.697	43.86
906.876	-13.48
907.055	25.43
907.233	-17.58
907.412	-42.15
907.591	19.29
907.769	-97.45
907.948	-27.82
908.127	43.86
908.305	-103.59
908.484	27.48
908.662	-52.39
908.841	29.52
909.019	41.81
909.198	9.05
909.377	-36.01
909.555	19.29
909.734	11.09
909.912	-3.24
910.09	-13.48
910.269	43.86
910.447	-42.15
910.626	37.72
910.804	23.38
910.983	35.67
911.161	13.14
911.339	-54.44
911.518	-29.87
911.696	23.38
911.875	13.14
912.053	9.05
912.231	27.48
912.41	-48.3
912.588	33.62
912.766	-68.78
912.944	7
913.123	-68.78
913.301	60.24
913.479	-31.91
913.657	-1.19
913.836	-40.11
914.014	21.33
914.192	-44.2
914.37	56.15
914.548	-23.72
914.727	-38.06
914.905	101.2
915.083	-21.67
915.261	-58.54
915.439	74.58
915.617	-42.15
915.795	78.68
915.973	-7.34
916.151	-11.43
916.329	-50.35
916.508	-11.43
916.686	47.96
916.864	-13.48
917.042	-23.72
917.22	23.38
917.398	7
917.575	19.29
917.753	62.29
917.931	56.15
918.109	-21.67
918.287	9.05
918.465	33.62
918.643	60.24
918.821	-58.54
918.999	9.05
919.177	27.48
919.354	-17.58
919.532	-29.87
919.71	15.19
919.888	-46.25
920.066	17.24
920.243	4.95
920.421	-68.78
920.599	11.09
920.777	-3.24
920.954	-3.24
921.132	-42.15
921.31	41.81
921.488	19.29
921.665	56.15
921.843	78.68
922.021	29.52
922.198	41.81
922.376	-15.53
922.553	0.85
922.731	-21.67
922.909	52.05
923.086	19.29
923.264	-54.44
923.441	-87.21
923.619	-54.44
923.796	-27.82
923.974	11.09
924.152	13.14
924.329	19.29
924.507	31.57
924.684	39.76
924.861	-15.53
925.039	4.95
925.216	0.85
925.394	-3.24
925.571	-13.48
925.749	52.05
925.926	66.39
926.103	0.85
926.281	0.85
926.458	-33.96
926.635	-7.34
926.813	23.38
926.99	0.85
927.167	-68.78
927.345	-36.01
927.522	45.91
927.699	-60.59
927.876	-27.82
928.054	-44.2
928.231	-7.34
928.408	78.68
928.585	2.9
928.763	-66.73
928.94	-11.43
929.117	-44.2
929.294	-17.58
929.471	-7.34
929.648	-7.34
929.825	-58.54
930.003	-48.3
930.18	-31.91
930.357	37.72
930.534	-23.72
930.711	15.19
930.888	-11.43
931.065	4.95
931.242	-19.63
931.419	29.52
931.596	-29.87
931.773	4.95
931.95	-79.02
932.127	29.52
932.304	-66.73
932.481	0.85
932.658	-7.34
932.835	23.38
933.011	-85.16
933.188	35.67
933.365	-58.54
933.542	-48.3
933.719	-7.34
933.896	-13.48
934.073	-15.53
934.249	7
934.426	13.14
934.603	21.33
934.78	-3.24
934.957	-19.63
935.133	-9.39
935.31	60.24
935.487	7
935.664	-29.87
935.84	-31.91
936.017	31.57
936.194	-17.58
936.37	9.05
936.547	4.95
936.724	27.48
936.9	-23.72
937.077	-76.97
937.253	-11.43
937.43	-36.01
937.607	25.43
937.783	-36.01
937.96	0.85
938.136	15.19
938.313	-42.15
938.489	-21.67
938.666	15.19
938.842	-3.24
939.019	-38.06
939.195	-9.39
939.372	-25.77
939.548	-46.25
939.725	-56.49
939.901	-68.78
940.077	111.44
940.254	17.24
940.43	-19.63
940.607	70.48
940.783	27.48
940.959	50
941.136	17.24
941.312	-101.55
941.488	29.52
941.665	86.87
941.841	-36.01
942.017	117.59
942.193	0.85
942.37	-13.48
942.546	-33.96
942.722	23.38
942.898	9.05
943.074	-46.25
943.251	-52.39
943.427	4.95
943.603	-31.91
943.779	2.9
943.955	-52.39
944.131	-31.91
944.308	11.09
944.484	-42.15
944.66	-40.11
944.836	4.95
945.012	-11.43
945.188	-117.93
945.364	-9.39
945.54	-40.11
945.716	0.85
945.892	19.29
946.068	43.86
946.244	4.95
946.42	-38.06
946.596	9.05
946.772	25.43
946.948	41.81
947.124	27.48
947.3	-9.39
947.475	-21.67
947.651	19.29
947.827	-58.54
948.003	4.95
948.179	-19.63
948.355	-17.58
948.531	50
948.706	47.96
948.882	21.33
949.058	2.9
949.234	-38.06
949.409	-25.77
949.585	31.57
949.761	-23.72
949.937	-23.72
950.112	-7.34
950.288	25.43
950.464	-1.19
950.639	43.86
950.815	74.58
950.991	-89.26
951.166	-48.3
951.342	37.72
951.518	54.1
951.693	23.38
951.869	-76.97
952.044	-21.67
952.22	58.2
952.395	-79.02
952.571	-31.91
952.747	-54.44
952.922	2.9
953.098	-19.63
953.273	-23.72
953.448	-31.91
953.624	-15.53
953.799	-1.19
953.975	25.43
954.15	17.24
954.326	-5.29
954.501	-40.11
954.676	-36.01
954.852	41.81
955.027	45.91
955.203	35.67
955.378	-17.58
955.553	66.39
955.729	66.39
955.904	47.96
956.079	37.72
956.254	-21.67
956.43	17.24
956.605	-64.68
956.78	25.43
956.955	-15.53
957.131	47.96
957.306	41.81
957.481	31.57
957.656	-13.48
957.831	-5.29
958.007	9.05
958.182	41.81
958.357	-83.11
958.532	17.24
958.707	11.09
958.882	-48.3
959.057	35.67
959.232	58.2
959.407	-17.58
959.582	21.33
959.757	37.72
959.932	17.24
960.107	39.76
960.282	-89.26
960.457	19.29
960.632	-62.63
960.807	-15.53
960.982	-27.82
961.157	-25.77
961.332	-38.06
961.507	2.9
961.682	43.86
961.857	17.24
962.032	-60.59
962.206	33.62
962.381	72.53
962.556	-46.25
962.731	76.63
962.906	23.38
963.081	2.9
963.255	39.76
963.43	17.24
963.605	2.9
963.78	-33.96
963.954	33.62
964.129	25.43
964.304	-23.72
964.479	-17.58
964.653	-23.72
964.828	52.05
965.003	-23.72
965.177	-56.49
965.352	13.14
965.526	-19.63
965.701	-38.06
965.876	-27.82
966.05	-38.06
966.225	54.1
966.399	-15.53
966.574	-48.3
966.748	41.81
966.923	-7.34
967.098	9.05
967.272	-56.49
967.446	35.67
967.621	-36.01
967.795	-5.29
967.97	-29.87
968.144	-36.01
968.319	-95.4
968.493	11.09
968.668	-5.29
968.842	19.29
969.016	21.33
969.191	-27.82
969.365	4.95
969.539	9.05
969.714	27.48
969.888	-126.12
970.062	41.81
970.237	-91.31
970.411	7
970.585	-21.67
970.759	-13.48
970.934	27.48
971.108	21.33
971.282	-31.91
971.456	-29.87
971.63	-9.39
971.805	-15.53
971.979	-15.53
972.153	-23.72
972.327	0.85
972.501	21.33
972.675	-19.63
972.849	-7.34
973.024	-19.63
973.198	23.38
973.372	58.2
973.546	-126.12
973.72	-15.53
973.894	-81.07
974.068	-23.72
974.242	-9.39
974.416	-1.19
974.59	47.96
974.764	-7.34
974.938	-1.19
975.112	-33.96
975.286	19.29
975.46	39.76
975.633	60.24
975.807	-42.15
975.981	56.15
976.155	-62.63
976.329	2.9
976.503	54.1
976.677	-33.96
976.85	70.48
977.024	-58.54
977.198	54.1
977.372	41.81
977.546	-81.07
977.719	-36.01
977.893	56.15
978.067	37.72
978.241	-44.2
978.414	21.33
978.588	39.76
978.762	-23.72
978.935	-31.91
979.109	50
979.283	-56.49
979.456	66.39
979.63	-7.34
979.804	58.2
979.977	-44.2
980.151	76.63
980.324	21.33
980.498	-38.06
980.671	-70.83
980.845	-3.24
981.018	-13.48
981.192	21.33
981.365	-44.2
981.539	-72.87
981.712	93.01
981.886	43.86
982.059	15.19
982.233	-89.26
982.406	-42.15
982.58	-76.97
982.753	58.2
982.926	-9.39
983.1	-27.82
983.273	-103.59
983.446	4.95
983.62	-31.91
983.793	-13.48
983.966	-19.63
984.14	43.86
984.313	-11.43
984.486	13.14
984.66	-36.01
984.833	4.95
985.006	31.57
985.179	31.57
985.352	4.95
985.526	9.05
985.699	39.76
985.872	-11.43
986.045	-70.83
986.218	15.19
986.391	25.43
986.565	-19.63
986.738	54.1
986.911	-3.24
987.084	13.14
987.257	-21.67
987.43	58.2
987.603	35.67
987.776	31.57
987.949	-7.34
988.122	-76.97
988.295	4.95
988.468	-13.48
988.641	-7.34
988.814	13.14
988.987	9.05
989.16	-13.48
989.333	25.43
989.506	27.48
989.679	58.2
989.852	-76.97
990.025	21.33
990.197	19.29
990.37	19.29
990.543	15.19
990.716	43.86
990.889	23.38
991.062	9.05
991.234	17.24
991.407	70.48
991.58	-56.49
991.753	-5.29
991.925	-5.29
992.098	-5.29
992.271	0.85
992.444	54.1
992.616	25.43
992.789	-15.53
992.962	17.24
993.134	99.16
993.307	23.38
993.479	45.91
993.652	9.05
993.825	0.85
993.997	7
994.17	29.52
994.342	-27.82
994.515	27.48
994.688	-72.87
994.86	-5.29
995.033	-7.34
995.205	-27.82
995.378	9.05
995.55	-81.07
995.723	19.29
995.895	35.67
996.067	0.85
996.24	21.33
996.412	-54.44
996.585	-23.72
996.757	-64.68
996.929	41.81
997.102	-54.44
997.274	9.05
997.447	31.57
997.619	0.85
997.791	21.33
997.964	21.33
998.136	-19.63
998.308	-66.73
998.48	-3.24
998.653	9.05
998.825	9.05
998.997	25.43
999.169	9.05
999.342	-27.82
999.514	11.09
999.686	29.52
999.858	-3.24
1000.03	-7.34
1000.202	-25.77
1000.374	-74.92
1000.547	43.86
1000.719	-5.29
1000.891	-17.58
1001.063	-7.34
1001.235	-27.82
1001.407	-1.19
1001.579	35.67
1001.751	4.95
1001.923	39.76
1002.095	-52.39
1002.267	39.76
1002.439	11.09
1002.611	-3.24
1002.783	41.81
1002.955	11.09
1003.127	-60.59
1003.299	-21.67
1003.471	-27.82
1003.643	-9.39
1003.815	-25.77
1003.986	11.09
1004.158	-5.29
1004.33	21.33
1004.502	27.48
1004.674	31.57
1004.846	33.62
1005.017	31.57
1005.189	13.14
1005.361	-7.34
1005.533	41.81
1005.704	50
1005.876	37.72
1006.048	29.52
1006.22	17.24
1006.391	19.29
1006.563	-21.67
1006.735	-50.35
1006.906	-33.96
1007.078	140.12
1007.25	47.96
1007.421	37.72
1007.593	-19.63
1007.764	-23.72
1007.936	41.81
1008.108	4.95
1008.279	7
1008.451	-66.73
1008.622	-1.19
1008.794	-33.96
1008.965	-33.96
1009.137	-19.63
1009.308	-81.07
1009.48	-52.39
1009.651	-38.06
1009.823	17.24
1009.994	-31.91
1010.165	-74.92
1010.337	-111.78
1010.508	-1.19
1010.68	-23.72
1010.851	17.24
1011.022	-27.82
1011.194	-19.63
1011.365	19.29
1011.536	15.19
1011.708	13.14
1011.879	2.9
1012.05	-7.34
1012.222	-31.91
1012.393	-40.11
1012.564	45.91
1012.735	-46.25
1012.906	45.91
1013.078	-7.34
1013.249	60.24
1013.42	37.72
1013.591	13.14
1013.762	-91.31
1013.934	35.67
1014.105	27.48
1014.276	0.85
1014.447	23.38
1014.618	76.63
1014.789	-44.2
1014.96	-23.72
1015.131	-1.19
1015.302	-7.34
1015.473	54.1
1015.644	39.76
1015.815	-113.83
1015.986	-23.72
1016.157	41.81
1016.328	-25.77
1016.499	-56.49
1016.67	-13.48
1016.841	-29.87
1017.012	29.52
1017.183	-48.3
1017.354	-52.39
1017.525	17.24
1017.696	-46.25
1017.867	35.67
1018.037	25.43
1018.208	-25.77
1018.379	-42.15
1018.55	-13.48
1018.721	-54.44
1018.891	-3.24
1019.062	-50.35
1019.233	-40.11
1019.404	-17.58
1019.574	-19.63
1019.745	-38.06
1019.916	-42.15
1020.087	-1.19
1020.257	-1.19
1020.428	47.96
1020.599	-11.43
1020.769	-72.87
1020.94	21.33
1021.11	58.2
1021.281	45.91
1021.452	-42.15
1021.622	-31.91
1021.793	-1.19
1021.963	19.29
1022.134	41.81
1022.305	15.19
1022.475	-44.2
1022.646	-1.19
1022.816	0.85
1022.987	45.91
1023.157	9.05
1023.327	-27.82
1023.498	2.9
1023.668	4.95
1023.839	-52.39
1024.009	-3.24
1024.18	-68.78
1024.35	7
1024.52	4.95
1024.691	-3.24
1024.861	84.82
1025.031	68.44
1025.202	-76.97
1025.372	4.95
1025.542	-48.3
1025.713	-64.68
1025.883	-62.63
1026.053	-1.19
1026.223	31.57
1026.394	-15.53
1026.564	19.29
1026.734	-1.19
1026.904	-11.43
1027.074	25.43
1027.245	50
1027.415	-7.34
1027.585	70.48
1027.755	-3.24
1027.925	37.72
1028.095	-31.91
1028.265	4.95
1028.435	17.24
1028.606	-31.91
1028.776	21.33
1028.946	11.09
1029.116	-40.11
1029.286	-19.63
1029.456	56.15
1029.626	27.48
1029.796	13.14
1029.966	-56.49
1030.136	-42.15
1030.306	-33.96
1030.475	-70.83
1030.645	-11.43
1030.815	-3.24
1030.985	35.67
1031.155	-25.77
1031.325	43.86
1031.495	-5.29
1031.665	60.24
1031.835	29.52
1032.004	29.52
1032.174	17.24
1032.344	21.33
1032.514	72.53
1032.684	-7.34
1032.853	-21.67
1033.023	0.85
1033.193	25.43
1033.362	4.95
1033.532	-62.63
1033.702	33.62
1033.872	-23.72
1034.041	7
1034.211	7
1034.381	-7.34
1034.55	-44.2
1034.72	-36.01
1034.889	-31.91
1035.059	-15.53
1035.229	2.9
1035.398	21.33
1035.568	-72.87
1035.737	33.62
1035.907	-3.24
1036.076	-52.39
1036.246	-36.01
1036.415	-17.58
1036.585	43.86
1036.754	17.24
1036.924	-52.39
1037.093	0.85
1037.263	17.24
1037.432	-62.63
1037.601	-19.63
1037.771	43.86
1037.94	-9.39
1038.11	47.96
1038.279	-64.68
1038.448	19.29
1038.618	-19.63
1038.787	29.52
1038.956	27.48
1039.126	-29.87
1039.295	2.9
1039.464	15.19
1039.633	-11.43
1039.803	50
1039.972	-91.31
1040.141	-58.54
1040.31	31.57
1040.479	50
1040.649	25.43
1040.818	-54.44
1040.987	41.81
1041.156	11.09
1041.325	-52.39
1041.494	21.33
1041.663	2.9
1041.833	-48.3
1042.002	-62.63
1042.171	-40.11
1042.34	50
1042.509	-25.77
1042.678	-19.63
